Wavelength [nm]	Wavenumbers [1/cm]	RB_12.5uM	RB_25uM	Rb_50uM	RB_6.25uM
183.000	54644.81	0.1438	-0.09951	0.02943	0.08911
183.500	54495.91	0.1068	0.1277	0.1728	0.04213
184.000	54347.83	0.1366	0.1993	0.2174	0.08686
184.500	54200.54	0.1788	0.1153	0.1793	0.1824
185.000	54054.05	0.07391	-0.01156	0.1099	0.1516
185.500	53908.36	0.009086	-0.004193	0.1426	0.0292
186.000	53763.44	0.2898	0.3276	0.3955	0.08005
186.500	53619.30	0.3367	0.4624	0.5276	0.1501
187.000	53475.94	0.007397	0.1725	0.4236	0.1853
187.500	53333.33	-0.1197	-0.06212	0.1869	0.04122
188.000	53191.49	0.1942	0.03412	0.1476	-0.08842
188.500	53050.40	0.3676	0.3351	0.3353	-0.004287
189.000	52910.05	0.2739	0.52	0.3751	0.1483
189.500	52770.45	0.1961	0.2474	0.09198	0.2194
190.000	52631.58	0.07672	0.02232	-0.03355	0.1003
190.500	52493.44	-0.03128	-0.02968	0.135	-0.1097
191.000	52356.02	0.09319	0.1183	0.3436	-0.1044
191.500	52219.32	0.2283	0.2875	0.3338	0.05973
192.000	52083.33	0.1562	0.3511	0.3543	0.3223
192.500	51948.05	0.09678	0.2655	0.3743	0.4384
193.000	51813.47	0.1475	0.0889	0.3523	0.1618
193.500	51679.59	0.2096	0.03056	0.3338	0.07023
194.000	51546.39	0.1841	0.08289	0.315	0.1666
194.500	51413.88	0.1247	0.1101	0.2495	0.2168
195.000	51282.05	0.09387	0.123	0.1664	0.1693
195.500	51150.90	0.1425	0.1691	0.1049	0.06463
196.000	51020.41	0.2168	0.2209	0.148	0.0593
196.500	50890.59	0.2209	0.1913	0.2174	0.1368
197.000	50761.42	0.1976	0.0721	0.1159	0.1111
197.500	50632.91	0.09907	-0.0494	-0.02829	0.03131
198.000	50505.05	-0.04677	-0.003774	0.01263	0.06799
198.500	50377.83	-0.06398	0.2132	0.1515	0.177
199.000	50251.26	0.01184	0.5059	0.2178	0.2136
199.500	50125.31	0.003019	0.3737	0.1454	0.06423
200.000	50000.00	-0.02566	0.1281	0.06566	-0.05452
200.500	49875.31	0.1419	0.1771	0.1421	0.08299
201.000	49751.24	0.2793	0.2821	0.1823	0.2266
201.500	49627.79	0.05098	0.1886	0.0221	0.05879
202.000	49504.95	-0.1704	0.08684	-0.06318	0.00934
202.500	49382.72	-0.1862	0.09336	-0.02148	0.1707
203.000	49261.08	-0.1185	0.0515	-0.122	0.08831
203.500	49140.05	0.01119	0.0182	-0.2001	-0.03969
204.000	49019.61	0.04612	0.1124	-0.01363	0.1042
204.500	48899.76	0.04457	0.165	0.127	0.1425
205.000	48780.49	0.05044	0.1091	0.08384	-0.01045
205.500	48661.80	-0.03104	-0.02063	0.1323	-0.09454
206.000	48543.69	-0.1346	-0.1353	0.2356	-0.09851
206.500	48426.15	-0.09581	-0.1084	0.007007	-0.1
207.000	48309.18	-0.06302	-0.001612	-0.0504	-0.07811
207.500	48192.77	-0.09993	0.1109	0.1623	-0.02929
208.000	48076.92	0.014	0.2074	0.3289	-0.04399
208.500	47961.63	0.2411	0.2934	0.2276	-0.07886
209.000	47846.89	0.1434	0.5006	0.1237	-0.02542
209.500	47732.70	-0.08949	0.7391	0.119	0.1381
210.000	47619.05	-0.06694	0.3703	0.2936	0.1784
210.500	47505.94	0.03079	0.2187	0.4294	0.2087
211.000	47393.36	0.1161	0.1984	0.4295	0.2913
211.500	47281.32	0.1886	0.254	0.3335	0.2781
212.000	47169.81	0.1784	0.2933	0.2111	0.1718
212.500	47058.82	0.01089	0.1578	0.1088	0.05484
213.000	46948.36	-0.07871	0.07245	0.1405	0.009481
213.500	46838.41	0.05615	0.1889	0.348	0.08296
214.000	46728.97	0.2275	0.2556	0.4078	0.1486
214.500	46620.05	0.2698	0.1768	0.2509	0.1326
215.000	46511.63	0.02889	-0.02404	0.002029	-0.03165
215.500	46403.71	-0.2545	-0.2036	-0.1549	-0.2488
216.000	46296.30	-0.2379	-0.1054	0.0771	-0.2429
216.500	46189.38	-0.04261	0.06431	0.3768	-0.07106
217.000	46082.95	0.1514	0.1434	0.3598	0.112
217.500	45977.01	0.1526	0.1681	0.204	0.1154
218.000	45871.56	-0.03141	0.09334	0.04973	-0.01174
218.500	45766.59	-0.2249	-0.09531	-0.00332	-0.1007
219.000	45662.10	-0.2093	-0.1029	0.1481	-0.09092
219.500	45558.09	0.01896	0.1156	0.4039	0.003439
220.000	45454.55	0.1756	0.2669	0.3741	0.1511
220.500	45351.47	0.1259	0.1938	0.2112	0.2247
221.000	45248.87	-0.1064	-0.08682	0.06598	-0.03722
221.500	45146.73	-0.1903	-0.2227	0.003805	-0.1957
222.000	45045.05	0.1757	0.07335	0.1092	0.1077
222.500	44943.82	0.2716	0.1948	0.08382	0.1544
223.000	44843.05	0.01338	0.05496	0.02648	-0.08128
223.500	44742.73	-0.06865	0.06974	0.3457	-0.1095
224.000	44642.86	-0.04349	0.1192	1.045	0.04808
224.500	44543.43	-0.08676	-0.01587	0.2939	0.2056
225.000	44444.44	-0.1121	-0.0645	0.0631	0.232
225.500	44345.90	-0.04743	0.05834	0.1389	0.136
226.000	44247.79	0.1309	0.2522	0.2671	0.08861
226.500	44150.11	0.2501	0.3106	0.285	0.07982
227.000	44052.86	0.08434	0.1543	0.2042	0.06182
227.500	43956.04	-0.002441	0.04245	0.1956	0.09234
228.000	43859.65	0.1135	0.07122	0.3439	0.1835
228.500	43763.68	0.1436	0.1605	0.4258	0.1396
229.000	43668.12	0.05738	0.2187	0.3589	0.05211
229.500	43572.98	0.08133	0.1735	0.3377	0.1173
230.000	43478.26	0.1142	0.1016	0.3468	0.1899
230.500	43383.95	0.04152	0.07225	0.3076	0.09152
231.000	43290.04	0.07081	0.1564	0.1759	0.1134
231.500	43196.54	0.1966	0.2833	0.109	0.2463
232.000	43103.45	0.1624	0.2958	0.1787	0.1229
232.500	43010.75	0.006799	0.1956	0.4197	-0.09207
233.000	42918.45	-0.01653	0.1159	0.4598	-0.06302
233.500	42826.55	0.154	0.09189	0.4013	0.09552
234.000	42735.04	0.3523	0.1069	0.4429	0.1708
234.500	42643.92	0.1906	0.2117	0.4302	0.1375
235.000	42553.19	-0.0003581	0.3924	0.3795	0.07217
235.500	42462.85	0.1545	0.3136	0.3902	0.08965
236.000	42372.88	0.3669	0.2559	0.3433	0.1247
236.500	42283.30	0.1697	0.393	0.2289	0.1199
237.000	42194.09	0.1097	0.3785	0.2973	0.155
237.500	42105.26	0.2189	0.2359	0.5387	0.1989
238.000	42016.81	0.2244	0.2363	0.6026	0.1457
238.500	41928.72	0.04611	0.3014	0.5082	0.08365
239.000	41841.00	-0.1286	0.2328	0.4834	0.1648
239.500	41753.65	-0.03553	0.1374	0.259	0.251
240.000	41666.67	0.3703	0.1238	0.1072	0.2464
240.500	41580.04	0.4771	0.1965	0.2518	0.3186
241.000	41493.78	0.2126	0.3078	0.5231	0.3203
241.500	41407.87	0.07683	0.3485	0.2154	0.06039
242.000	41322.31	0.06236	0.2973	0.06903	-0.04576
242.500	41237.11	0.1476	0.2803	0.3354	0.1328
243.000	41152.26	0.2389	0.3987	0.5489	0.3071
243.500	41067.76	0.2953	0.6159	0.4605	0.323
244.000	40983.61	0.2773	0.6414	0.3598	0.2363
244.500	40899.80	0.1974	0.4173	0.3013	0.1571
245.000	40816.33	0.1064	0.1875	0.2957	0.126
245.500	40733.20	0.135	0.1808	0.4433	0.1361
246.000	40650.41	0.2676	0.4216	0.7283	0.1717
246.500	40567.95	0.2414	0.5943	0.6546	0.2071
247.000	40485.83	0.1616	0.4997	0.5331	0.1971
247.500	40404.04	0.1921	0.3597	0.7112	0.1324
248.000	40322.58	0.2329	0.2913	0.8867	0.1129
248.500	40241.45	0.2284	0.3194	0.6883	0.1674
249.000	40160.64	0.251	0.4803	0.5425	0.2204
249.500	40080.16	0.236	0.5379	0.517	0.1958
250.000	40000.00	0.1088	0.28	0.5616	0.09772
250.500	39920.16	0.08126	0.1901	0.7596	0.07396
251.000	39840.64	0.2318	0.4031	0.9633	0.1844
251.500	39761.43	0.2981	0.5498	0.8945	0.2565
252.000	39682.54	0.2737	0.5624	0.8044	0.265
252.500	39603.96	0.2555	0.5855	0.8541	0.2456
253.000	39525.69	0.2646	0.6191	0.996	0.249
253.500	39447.73	0.2903	0.6445	1.159	0.2756
254.000	39370.08	0.3077	0.6674	1.204	0.2758
254.500	39292.73	0.3103	0.6772	1.163	0.2603
255.000	39215.69	0.3039	0.6584	1.184	0.2666
255.500	39138.94	0.2999	0.6518	1.263	0.2764
256.000	39062.50	0.3043	0.6835	1.352	0.2706
256.500	38986.35	0.3121	0.7183	1.373	0.2689
257.000	38910.51	0.3186	0.7288	1.334	0.2762
257.500	38834.95	0.3219	0.7164	1.333	0.2786
258.000	38759.69	0.3227	0.7051	1.359	0.278
258.500	38684.72	0.3229	0.7157	1.361	0.2817
259.000	38610.04	0.325	0.7239	1.347	0.2847
259.500	38535.65	0.3289	0.7167	1.34	0.2828
260.000	38461.54	0.3302	0.7176	1.369	0.2794
260.500	38387.72	0.33	0.7249	1.416	0.2768
261.000	38314.18	0.3322	0.7199	1.427	0.2759
261.500	38240.92	0.3348	0.7109	1.406	0.2762
262.000	38167.94	0.335	0.7081	1.384	0.276
262.500	38095.24	0.3336	0.7074	1.381	0.2723
263.000	38022.81	0.3312	0.7034	1.397	0.2667
263.500	37950.66	0.3286	0.6933	1.412	0.2649
264.000	37878.79	0.3263	0.6848	1.406	0.2646
264.500	37807.18	0.3249	0.6851	1.37	0.2618
265.000	37735.85	0.3238	0.686	1.345	0.2593
265.500	37664.78	0.3218	0.6805	1.343	0.2579
266.000	37593.98	0.3171	0.6678	1.336	0.2546
266.500	37523.45	0.3118	0.6535	1.318	0.2501
267.000	37453.18	0.3093	0.6443	1.294	0.2469
267.500	37383.18	0.3069	0.6362	1.27	0.2444
268.000	37313.43	0.3022	0.6252	1.25	0.2414
268.500	37243.95	0.2955	0.6122	1.227	0.2372
269.000	37174.72	0.2887	0.599	1.203	0.2324
269.500	37105.75	0.2839	0.5872	1.179	0.2286
270.000	37037.04	0.2797	0.5752	1.155	0.2253
270.500	36968.58	0.2742	0.5614	1.128	0.2215
271.000	36900.37	0.2684	0.5479	1.098	0.2181
271.500	36832.41	0.2628	0.536	1.069	0.215
272.000	36764.71	0.2569	0.5246	1.047	0.2108
272.500	36697.25	0.2507	0.5123	1.025	0.2063
273.000	36630.04	0.2446	0.4984	0.9965	0.203
273.500	36563.07	0.2389	0.4853	0.9687	0.1999
274.000	36496.35	0.2338	0.4741	0.9465	0.1963
274.500	36429.87	0.2291	0.4623	0.9257	0.1923
275.000	36363.64	0.2246	0.4502	0.9042	0.1888
275.500	36297.64	0.2202	0.4402	0.8828	0.1866
276.000	36231.88	0.2155	0.4313	0.8638	0.1847
276.500	36166.37	0.2107	0.4221	0.8472	0.182
277.000	36101.08	0.2065	0.4127	0.828	0.1787
277.500	36036.04	0.2034	0.404	0.8077	0.1758
278.000	35971.22	0.2008	0.397	0.7929	0.1744
278.500	35906.64	0.1976	0.3896	0.7803	0.1728
279.000	35842.29	0.1931	0.38	0.7646	0.1695
279.500	35778.18	0.1888	0.3722	0.7488	0.1665
280.000	35714.29	0.1858	0.3674	0.7348	0.1652
280.500	35650.62	0.1838	0.3617	0.7208	0.1642
281.000	35587.19	0.1819	0.3551	0.7081	0.1628
281.500	35523.98	0.1793	0.3494	0.6982	0.1605
282.000	35460.99	0.1766	0.3442	0.6878	0.1581
282.500	35398.23	0.1746	0.3391	0.6756	0.1567
283.000	35335.69	0.1731	0.3352	0.6662	0.1564
283.500	35273.37	0.1716	0.3318	0.6593	0.1559
284.000	35211.27	0.1693	0.3277	0.6513	0.1537
284.500	35149.38	0.167	0.3234	0.6423	0.1516
285.000	35087.72	0.1656	0.3195	0.6339	0.1512
285.500	35026.27	0.1637	0.3158	0.6272	0.1501
286.000	34965.03	0.1618	0.3126	0.622	0.1481
286.500	34904.01	0.1615	0.3109	0.6172	0.1471
287.000	34843.21	0.1615	0.3093	0.6123	0.1467
287.500	34782.61	0.16	0.3063	0.6074	0.1459
288.000	34722.22	0.1587	0.3038	0.6032	0.145
288.500	34662.05	0.1587	0.3027	0.6008	0.1446
289.000	34602.08	0.159	0.3024	0.601	0.1447
289.500	34542.31	0.1585	0.3014	0.6002	0.1445
290.000	34482.76	0.1567	0.2992	0.5946	0.1435
290.500	34423.41	0.1557	0.2978	0.5908	0.1425
291.000	34364.26	0.1567	0.2985	0.5923	0.1422
291.500	34305.32	0.1583	0.3001	0.5942	0.1424
292.000	34246.58	0.1592	0.301	0.5945	0.1428
292.500	34188.03	0.1588	0.3002	0.5942	0.143
293.000	34129.69	0.1581	0.2994	0.594	0.1429
293.500	34071.55	0.1583	0.3002	0.5945	0.1424
294.000	34013.61	0.1592	0.302	0.5964	0.1422
294.500	33955.86	0.1604	0.3036	0.599	0.1425
295.000	33898.31	0.1614	0.304	0.6008	0.1427
295.500	33840.95	0.1621	0.3043	0.6023	0.1428
296.000	33783.78	0.1627	0.3058	0.6047	0.1429
296.500	33726.81	0.1635	0.3074	0.6069	0.1427
297.000	33670.03	0.1643	0.3081	0.6089	0.1426
297.500	33613.45	0.1645	0.3082	0.6121	0.1429
298.000	33557.05	0.1649	0.3092	0.6157	0.1434
298.500	33500.84	0.1663	0.3122	0.6184	0.1438
299.000	33444.82	0.1677	0.315	0.621	0.144
299.500	33388.98	0.1685	0.3161	0.6238	0.1443
300.000	33333.33	0.1688	0.3164	0.6262	0.1452
300.500	33277.87	0.169	0.3172	0.6287	0.146
301.000	33222.59	0.1697	0.319	0.6321	0.1455
301.500	33167.50	0.1703	0.3204	0.6341	0.1449
302.000	33112.58	0.1707	0.3206	0.6337	0.145
302.500	33057.85	0.1708	0.3205	0.6341	0.1449
303.000	33003.30	0.171	0.3212	0.636	0.1446
303.500	32948.93	0.1718	0.3227	0.6381	0.1449
304.000	32894.74	0.1726	0.324	0.6394	0.1455
304.500	32840.72	0.1729	0.3241	0.6395	0.1457
305.000	32786.89	0.173	0.324	0.6389	0.1458
305.500	32733.22	0.1732	0.3242	0.6383	0.1459
306.000	32679.74	0.1734	0.3241	0.6383	0.1456
306.500	32626.43	0.1735	0.3238	0.6389	0.1452
307.000	32573.29	0.1735	0.3236	0.6393	0.1451
307.500	32520.33	0.1734	0.3231	0.6373	0.145
308.000	32467.53	0.1731	0.3222	0.6336	0.1447
308.500	32414.91	0.1724	0.3215	0.6328	0.1443
309.000	32362.46	0.1718	0.3208	0.6333	0.144
309.500	32310.18	0.1719	0.3197	0.6309	0.1439
310.000	32258.06	0.1717	0.3184	0.6276	0.1436
310.500	32206.12	0.1706	0.3172	0.6255	0.1431
311.000	32154.34	0.17	0.3163	0.6238	0.1426
311.500	32102.73	0.1697	0.3153	0.6215	0.1423
312.000	32051.28	0.1688	0.3134	0.6181	0.1418
312.500	32000.00	0.1676	0.3113	0.6139	0.141
313.000	31948.88	0.167	0.3095	0.6093	0.14
313.500	31897.93	0.166	0.3072	0.6045	0.1393
314.000	31847.13	0.1646	0.3043	0.5995	0.1388
314.500	31796.50	0.1636	0.3015	0.5943	0.1385
315.000	31746.03	0.1623	0.2988	0.5885	0.1379
315.500	31695.72	0.16	0.2956	0.5819	0.1364
316.000	31645.57	0.1579	0.2921	0.5747	0.135
316.500	31595.58	0.1566	0.2885	0.5673	0.1341
317.000	31545.74	0.1551	0.285	0.5599	0.1336
317.500	31496.06	0.153	0.2813	0.5522	0.1329
318.000	31446.54	0.1505	0.2773	0.5437	0.1311
318.500	31397.17	0.1483	0.2731	0.5359	0.1295
319.000	31347.96	0.1465	0.2689	0.5286	0.1288
319.500	31298.90	0.1442	0.2639	0.5186	0.128
320.000	31250.00	0.1416	0.2587	0.5074	0.1268
320.500	31201.25	0.1395	0.2544	0.4992	0.125
321.000	31152.65	0.1375	0.2501	0.4914	0.1233
321.500	31104.20	0.1351	0.245	0.4816	0.1221
322.000	31055.90	0.1332	0.2403	0.472	0.1213
322.500	31007.75	0.1314	0.2362	0.4633	0.1204
323.000	30959.75	0.1286	0.2318	0.4548	0.1192
323.500	30911.90	0.1257	0.2273	0.4462	0.1177
324.000	30864.20	0.1239	0.2232	0.4373	0.1162
324.500	30816.64	0.1224	0.2195	0.4279	0.1151
325.000	30769.23	0.1205	0.2155	0.4188	0.1142
325.500	30721.97	0.1183	0.2106	0.411	0.1125
326.000	30674.85	0.1157	0.2057	0.4039	0.1108
326.500	30627.87	0.113	0.202	0.3961	0.1101
327.000	30581.04	0.1112	0.1983	0.3883	0.1091
327.500	30534.35	0.1103	0.1942	0.3811	0.1077
328.000	30487.80	0.1088	0.1913	0.3748	0.1071
328.500	30441.40	0.1068	0.1889	0.3685	0.1069
329.000	30395.14	0.1051	0.1852	0.3615	0.1056
329.500	30349.01	0.1035	0.1813	0.3544	0.1046
330.000	30303.03	0.102	0.1784	0.3484	0.1043
330.500	30257.19	0.1011	0.1762	0.3438	0.1033
331.000	30211.48	0.1003	0.174	0.3396	0.1017
331.500	30165.91	0.09853	0.1708	0.3347	0.1012
332.000	30120.48	0.09679	0.168	0.3293	0.1008
332.500	30075.19	0.09589	0.1665	0.3243	0.09956
333.000	30030.03	0.09489	0.1648	0.3205	0.09881
333.500	29985.01	0.09373	0.1626	0.3174	0.09897
334.000	29940.12	0.09325	0.1609	0.3135	0.09939
334.500	29895.37	0.09281	0.1593	0.3094	0.09901
335.000	29850.75	0.09172	0.1574	0.306	0.09743
335.500	29806.26	0.09111	0.1556	0.3031	0.09641
336.000	29761.90	0.0908	0.154	0.3005	0.09632
336.500	29717.68	0.08904	0.1522	0.2973	0.09568
337.000	29673.59	0.08736	0.1506	0.2941	0.09499
337.500	29629.63	0.08771	0.1499	0.2914	0.09521
338.000	29585.80	0.08737	0.1489	0.2889	0.09489
338.500	29542.10	0.0855	0.1471	0.2865	0.09375
339.000	29498.53	0.08528	0.1464	0.2853	0.0938
339.500	29455.08	0.08589	0.146	0.2843	0.09406
340.000	29411.76	0.08473	0.1442	0.2818	0.09248
340.500	29368.58	0.08359	0.1426	0.2792	0.09142
341.000	29325.51	0.08378	0.1421	0.2773	0.09218
341.500	29282.58	0.08354	0.1411	0.2748	0.09211
342.000	29239.77	0.08256	0.1396	0.272	0.09121
342.500	29197.08	0.0818	0.1394	0.2705	0.09136
343.000	29154.52	0.08143	0.1392	0.269	0.09125
343.500	29112.08	0.0813	0.1379	0.2663	0.08997
344.000	29069.77	0.08126	0.1368	0.2648	0.08972
344.500	29027.58	0.08089	0.1362	0.2643	0.09051
345.000	28985.51	0.07973	0.1351	0.2629	0.09018
345.500	28943.56	0.07866	0.1338	0.2607	0.08893
346.000	28901.73	0.07861	0.1329	0.2589	0.08798
346.500	28860.03	0.07904	0.1327	0.2579	0.08833
347.000	28818.44	0.07922	0.1329	0.2572	0.08932
347.500	28776.98	0.07857	0.1322	0.2557	0.08867
348.000	28735.63	0.07761	0.1312	0.2543	0.0873
348.500	28694.40	0.07714	0.1308	0.2538	0.08708
349.000	28653.30	0.07695	0.1302	0.2528	0.08723
349.500	28612.30	0.07678	0.1292	0.251	0.08694
350.000	28571.43	0.07654	0.1287	0.25	0.08621
350.500	28530.67	0.07493	0.1271	0.2471	0.08469
351.000	28490.03	0.07157	0.1226	0.2398	0.0828
351.500	28449.50	0.07081	0.121	0.2371	0.08336
352.000	28409.09	0.07341	0.1235	0.2407	0.08592
352.500	28368.79	0.07538	0.1254	0.2434	0.08595
353.000	28328.61	0.07529	0.125	0.2424	0.08362
353.500	28288.54	0.07355	0.1228	0.2385	0.08246
354.000	28248.59	0.07198	0.1207	0.2346	0.08243
354.500	28208.74	0.07169	0.1198	0.2326	0.08242
355.000	28169.01	0.07144	0.1194	0.2313	0.08231
355.500	28129.40	0.07082	0.1185	0.2298	0.08196
356.000	28089.89	0.0703	0.1169	0.2271	0.08125
356.500	28050.49	0.06964	0.1152	0.2241	0.08074
357.000	28011.20	0.06871	0.1145	0.222	0.08085
357.500	27972.03	0.06846	0.1142	0.2206	0.08097
358.000	27932.96	0.06869	0.1134	0.2189	0.08073
358.500	27894.00	0.06793	0.1113	0.2155	0.0802
359.000	27855.15	0.06664	0.1092	0.2118	0.07951
359.500	27816.41	0.06588	0.1083	0.2098	0.0788
360.000	27777.78	0.06537	0.1074	0.2075	0.07837
360.500	27739.25	0.06474	0.106	0.204	0.07816
361.000	27700.83	0.06385	0.1047	0.2012	0.07773
361.500	27662.52	0.06275	0.1033	0.1988	0.07702
362.000	27624.31	0.0617	0.1012	0.1959	0.07626
362.500	27586.21	0.06136	0.09976	0.1931	0.07577
363.000	27548.21	0.06148	0.0995	0.1907	0.07566
363.500	27510.32	0.06041	0.09817	0.1878	0.0756
364.000	27472.53	0.05876	0.09604	0.1848	0.07529
364.500	27434.84	0.05834	0.09489	0.1823	0.07455
365.000	27397.26	0.05824	0.09407	0.18	0.07376
365.500	27359.78	0.0574	0.0928	0.1772	0.07328
366.000	27322.40	0.05609	0.0914	0.1745	0.07307
366.500	27285.13	0.05509	0.09011	0.1723	0.07294
367.000	27247.96	0.05517	0.08899	0.1705	0.07264
367.500	27210.88	0.05513	0.08806	0.1685	0.07216
368.000	27173.91	0.0541	0.08715	0.1659	0.07164
368.500	27137.04	0.05347	0.08569	0.1635	0.07128
369.000	27100.27	0.05338	0.08389	0.1613	0.07089
369.500	27063.60	0.05257	0.08266	0.1587	0.06998
370.000	27027.03	0.05159	0.08202	0.1563	0.06942
370.500	26990.55	0.0513	0.08149	0.1549	0.06987
371.000	26954.18	0.05099	0.08024	0.1531	0.0697
371.500	26917.90	0.05037	0.07857	0.1506	0.06877
372.000	26881.72	0.04989	0.07795	0.1492	0.06897
372.500	26845.64	0.04963	0.07797	0.1483	0.06953
373.000	26809.65	0.04941	0.07758	0.147	0.06892
373.500	26773.76	0.04904	0.07695	0.1455	0.06819
374.000	26737.97	0.04854	0.07619	0.144	0.06796
374.500	26702.27	0.04814	0.07494	0.1421	0.06749
375.000	26666.67	0.04784	0.07394	0.1405	0.06709
375.500	26631.16	0.04747	0.07403	0.1399	0.06738
376.000	26595.74	0.04703	0.07371	0.1392	0.06739
376.500	26560.42	0.04664	0.07239	0.1377	0.06666
377.000	26525.20	0.04658	0.07183	0.1366	0.06621
377.500	26490.07	0.04635	0.07194	0.1358	0.06612
378.000	26455.03	0.04527	0.0715	0.1347	0.06582
378.500	26420.08	0.04475	0.0709	0.1337	0.06539
379.000	26385.22	0.04552	0.07058	0.1329	0.06509
379.500	26350.46	0.04578	0.0701	0.1325	0.06522
380.000	26315.79	0.04519	0.0693	0.1323	0.06539
380.500	26281.21	0.04473	0.06843	0.1318	0.06486
381.000	26246.72	0.04437	0.06816	0.1307	0.06424
381.500	26212.32	0.04405	0.06866	0.1291	0.06421
382.000	26178.01	0.04431	0.06857	0.1286	0.0644
382.500	26143.79	0.04468	0.06802	0.129	0.06449
383.000	26109.66	0.04388	0.06842	0.1287	0.06439
383.500	26075.62	0.0431	0.0688	0.1278	0.06413
384.000	26041.67	0.04349	0.06791	0.127	0.06376
384.500	26007.80	0.04336	0.06661	0.1265	0.06322
385.000	25974.03	0.04238	0.06579	0.1263	0.06275
385.500	25940.34	0.0421	0.06584	0.1261	0.06288
386.000	25906.74	0.04282	0.06638	0.1261	0.0632
386.500	25873.22	0.04392	0.0668	0.1264	0.06318
387.000	25839.79	0.04402	0.06683	0.1264	0.06311
387.500	25806.45	0.04316	0.06672	0.1259	0.06313
388.000	25773.20	0.04319	0.06716	0.1262	0.06298
388.500	25740.03	0.04372	0.06752	0.1267	0.06287
389.000	25706.94	0.04345	0.06693	0.1264	0.06298
389.500	25673.94	0.0426	0.06674	0.1252	0.06254
390.000	25641.03	0.04196	0.06743	0.124	0.0616
390.500	25608.19	0.04245	0.0673	0.1243	0.0618
391.000	25575.45	0.04319	0.06665	0.1256	0.06247
391.500	25542.78	0.04271	0.06682	0.1265	0.06195
392.000	25510.20	0.04217	0.06744	0.1264	0.06154
392.500	25477.71	0.04242	0.0677	0.1256	0.06191
393.000	25445.29	0.0426	0.06693	0.1256	0.06137
393.500	25412.96	0.04255	0.06602	0.1263	0.06047
394.000	25380.71	0.04267	0.06652	0.1269	0.06104
394.500	25348.54	0.043	0.06765	0.1273	0.062
395.000	25316.46	0.0433	0.06822	0.1275	0.06212
395.500	25284.45	0.04304	0.0678	0.1274	0.06157
396.000	25252.53	0.04243	0.06701	0.1271	0.06093
396.500	25220.68	0.04226	0.06705	0.1275	0.06084
397.000	25188.92	0.04249	0.06764	0.1282	0.06119
397.500	25157.23	0.04289	0.06805	0.1287	0.06161
398.000	25125.63	0.04352	0.06795	0.1291	0.06178
398.500	25094.10	0.04406	0.0679	0.1294	0.06163
399.000	25062.66	0.04392	0.06892	0.1295	0.06134
399.500	25031.29	0.0435	0.06991	0.13	0.0613
400.000	25000.00	0.04337	0.06971	0.1308	0.06167
400.500	24968.79	0.04344	0.0694	0.131	0.06153
401.000	24937.66	0.04349	0.06958	0.1306	0.0609
401.500	24906.60	0.0433	0.06981	0.1313	0.06091
402.000	24875.62	0.04294	0.06998	0.1321	0.06117
402.500	24844.72	0.0427	0.07015	0.1317	0.06093
403.000	24813.90	0.04313	0.07028	0.132	0.06068
403.500	24783.15	0.04398	0.07037	0.1335	0.06065
404.000	24752.48	0.04403	0.07045	0.1341	0.06046
404.500	24721.88	0.04355	0.07068	0.134	0.06046
405.000	24691.36	0.04349	0.07114	0.1344	0.06101
405.500	24660.91	0.04398	0.07151	0.1353	0.06113
406.000	24630.54	0.04483	0.07184	0.1363	0.06074
406.500	24600.25	0.04563	0.07274	0.1368	0.06124
407.000	24570.02	0.04599	0.07363	0.1371	0.06217
407.500	24539.88	0.04561	0.07349	0.1375	0.0622
408.000	24509.80	0.045	0.07268	0.1374	0.0615
408.500	24479.80	0.04459	0.07204	0.1369	0.06066
409.000	24449.88	0.04424	0.07232	0.1372	0.0602
409.500	24420.02	0.04413	0.07308	0.1381	0.06023
410.000	24390.24	0.04454	0.07331	0.1384	0.06048
410.500	24360.54	0.04518	0.07367	0.1384	0.06058
411.000	24330.90	0.04551	0.07449	0.1389	0.06035
411.500	24301.34	0.04495	0.07459	0.1398	0.06006
412.000	24271.84	0.04441	0.07437	0.141	0.06009
412.500	24242.42	0.04535	0.07514	0.1421	0.06069
413.000	24213.08	0.04634	0.07569	0.1427	0.0613
413.500	24183.80	0.04612	0.07521	0.1427	0.06136
414.000	24154.59	0.04552	0.07512	0.1425	0.06081
414.500	24125.45	0.04528	0.07568	0.1426	0.06016
415.000	24096.39	0.04567	0.07591	0.1432	0.06021
415.500	24067.39	0.04596	0.07592	0.1437	0.06021
416.000	24038.46	0.04568	0.07611	0.1441	0.05959
416.500	24009.60	0.04571	0.07646	0.1448	0.05958
417.000	23980.82	0.04638	0.07702	0.1459	0.06027
417.500	23952.10	0.04717	0.07783	0.1467	0.06049
418.000	23923.44	0.04726	0.07824	0.147	0.06039
418.500	23894.86	0.04628	0.07775	0.1468	0.06036
419.000	23866.35	0.04541	0.07697	0.1462	0.05982
419.500	23837.90	0.04554	0.07684	0.146	0.05903
420.000	23809.52	0.0466	0.07802	0.1474	0.05915
420.500	23781.21	0.04752	0.07933	0.1494	0.05986
421.000	23752.97	0.04742	0.07954	0.1505	0.06032
421.500	23724.79	0.04706	0.07952	0.1505	0.06017
422.000	23696.68	0.047	0.0797	0.1502	0.05968
422.500	23668.64	0.04729	0.0797	0.1509	0.05971
423.000	23640.66	0.04776	0.07994	0.1521	0.06021
423.500	23612.75	0.04804	0.08081	0.1527	0.06061
424.000	23584.91	0.04748	0.08096	0.1523	0.06032
424.500	23557.13	0.04635	0.08003	0.1513	0.05944
425.000	23529.41	0.04625	0.07959	0.1507	0.05907
425.500	23501.76	0.04676	0.07984	0.1509	0.05911
426.000	23474.18	0.04653	0.08012	0.1516	0.05884
426.500	23446.66	0.04637	0.0805	0.1527	0.05852
427.000	23419.20	0.04695	0.08105	0.1539	0.05866
427.500	23391.81	0.04801	0.08164	0.1548	0.05958
428.000	23364.49	0.04858	0.08196	0.1549	0.06019
428.500	23337.22	0.04774	0.08181	0.1544	0.05914
429.000	23310.02	0.04688	0.08173	0.154	0.0581
429.500	23282.89	0.04702	0.08199	0.1546	0.05832
430.000	23255.81	0.04723	0.08192	0.1555	0.05849
430.500	23228.80	0.04729	0.08194	0.1564	0.05839
431.000	23201.86	0.0475	0.08285	0.157	0.05861
431.500	23174.97	0.04754	0.08348	0.1571	0.0588
432.000	23148.15	0.04717	0.08303	0.157	0.05852
432.500	23121.39	0.04674	0.08262	0.157	0.05776
433.000	23094.69	0.04686	0.083	0.1578	0.05733
433.500	23068.05	0.04797	0.08418	0.1597	0.05815
434.000	23041.47	0.04881	0.08506	0.1612	0.05893
434.500	23014.96	0.04862	0.08507	0.1616	0.05877
435.000	22988.51	0.04858	0.08518	0.1619	0.05874
435.500	22962.11	0.04888	0.08561	0.1624	0.05889
436.000	22935.78	0.04875	0.08585	0.1632	0.05835
436.500	22909.51	0.04876	0.08622	0.164	0.05808
437.000	22883.30	0.04936	0.087	0.1646	0.05879
437.500	22857.14	0.04961	0.0876	0.1655	0.05911
438.000	22831.05	0.04931	0.08795	0.1667	0.05877
438.500	22805.02	0.04911	0.08851	0.168	0.05877
439.000	22779.04	0.04937	0.08907	0.1692	0.05897
439.500	22753.13	0.04997	0.08927	0.1702	0.05887
440.000	22727.27	0.04989	0.08918	0.1708	0.05815
440.500	22701.48	0.04965	0.08955	0.172	0.05764
441.000	22675.74	0.05105	0.09138	0.175	0.05888
441.500	22650.06	0.05268	0.09332	0.1777	0.06043
442.000	22624.43	0.05294	0.09402	0.1784	0.06065
442.500	22598.87	0.05267	0.09395	0.1788	0.06017
443.000	22573.36	0.05246	0.09392	0.1799	0.0596
443.500	22547.91	0.0523	0.09471	0.1813	0.05921
444.000	22522.52	0.05254	0.09571	0.1828	0.05916
444.500	22497.19	0.05342	0.09625	0.1846	0.05948
445.000	22471.91	0.05425	0.09731	0.1867	0.06013
445.500	22446.69	0.05472	0.09894	0.1888	0.06074
446.000	22421.52	0.05505	0.09978	0.1903	0.06067
446.500	22396.42	0.05524	0.1	0.1916	0.06029
447.000	22371.36	0.05523	0.1004	0.1932	0.06027
447.500	22346.37	0.05547	0.1014	0.1954	0.06039
448.000	22321.43	0.0562	0.1028	0.198	0.06052
448.500	22296.54	0.05721	0.1046	0.2004	0.06096
449.000	22271.71	0.05814	0.1064	0.2026	0.06151
449.500	22246.94	0.05867	0.1075	0.2053	0.0618
450.000	22222.22	0.05876	0.1083	0.2076	0.06195
450.500	22197.56	0.0588	0.1091	0.2095	0.06204
451.000	22172.95	0.05964	0.1109	0.2125	0.0621
451.500	22148.39	0.06095	0.1129	0.216	0.0622
452.000	22123.89	0.06185	0.114	0.2188	0.06242
452.500	22099.45	0.06242	0.1152	0.2216	0.06272
453.000	22075.06	0.06294	0.1171	0.2248	0.06303
453.500	22050.72	0.06367	0.1187	0.2279	0.06328
454.000	22026.43	0.06456	0.1203	0.231	0.06355
454.500	22002.20	0.06545	0.1222	0.2346	0.06398
455.000	21978.02	0.06646	0.1241	0.2385	0.06444
455.500	21953.90	0.06754	0.1259	0.2427	0.0648
456.000	21929.82	0.06832	0.1276	0.2466	0.06503
456.500	21905.81	0.06895	0.1295	0.2503	0.06524
457.000	21881.84	0.06996	0.1316	0.2545	0.06566
457.500	21857.92	0.07166	0.1343	0.2597	0.06691
458.000	21834.06	0.07365	0.1373	0.2653	0.06869
458.500	21810.25	0.07445	0.1393	0.2696	0.06909
459.000	21786.49	0.07463	0.1408	0.2727	0.06848
459.500	21762.79	0.07598	0.1433	0.2767	0.06866
460.000	21739.13	0.07748	0.1459	0.2816	0.06933
460.500	21715.53	0.07821	0.148	0.2866	0.06977
461.000	21691.97	0.07917	0.1503	0.2915	0.06991
461.500	21668.47	0.08048	0.1531	0.2967	0.07
462.000	21645.02	0.0816	0.156	0.3032	0.07047
462.500	21621.62	0.08356	0.1597	0.3108	0.0718
463.000	21598.27	0.08646	0.1639	0.3183	0.07376
463.500	21574.97	0.08819	0.1673	0.3242	0.0751
464.000	21551.72	0.08891	0.1701	0.3292	0.07565
464.500	21528.53	0.09028	0.173	0.3352	0.07601
465.000	21505.38	0.092	0.1761	0.3416	0.07645
465.500	21482.28	0.09345	0.1792	0.3475	0.07696
466.000	21459.23	0.09498	0.1821	0.354	0.07727
466.500	21436.23	0.09668	0.1852	0.361	0.07754
467.000	21413.28	0.09843	0.1889	0.3676	0.07832
467.500	21390.37	0.1003	0.1932	0.3747	0.07956
468.000	21367.52	0.1024	0.1975	0.3832	0.0809
468.500	21344.72	0.1042	0.201	0.3907	0.08194
469.000	21321.96	0.1055	0.2039	0.3972	0.08245
469.500	21299.25	0.1063	0.2074	0.4044	0.08244
470.000	21276.60	0.1079	0.2115	0.4123	0.08285
470.500	21253.99	0.111	0.2159	0.4203	0.08417
471.000	21231.42	0.1137	0.2205	0.4286	0.08516
471.500	21208.91	0.1155	0.2252	0.4376	0.0858
472.000	21186.44	0.1171	0.2298	0.4471	0.08723
472.500	21164.02	0.1192	0.2343	0.4565	0.08877
473.000	21141.65	0.1222	0.2388	0.4656	0.08965
473.500	21119.32	0.125	0.2437	0.4743	0.09057
474.000	21097.05	0.1271	0.2487	0.4831	0.09169
474.500	21074.82	0.1288	0.2532	0.4922	0.09252
475.000	21052.63	0.131	0.2577	0.502	0.09334
475.500	21030.49	0.1341	0.2629	0.5126	0.09455
476.000	21008.40	0.137	0.2681	0.5232	0.09591
476.500	20986.36	0.1394	0.2732	0.5335	0.09719
477.000	20964.36	0.1418	0.2788	0.5438	0.09829
477.500	20942.41	0.1446	0.2848	0.555	0.09965
478.000	20920.50	0.1478	0.2905	0.5671	0.1016
478.500	20898.64	0.1512	0.2961	0.5777	0.1034
479.000	20876.83	0.1542	0.3018	0.5875	0.1049
479.500	20855.06	0.1563	0.3075	0.5995	0.1059
480.000	20833.33	0.1586	0.3133	0.6121	0.107
480.500	20811.65	0.1619	0.3192	0.6233	0.1084
481.000	20790.02	0.165	0.3251	0.6351	0.1097
481.500	20768.43	0.1675	0.3312	0.6486	0.1109
482.000	20746.89	0.1705	0.3375	0.6621	0.1124
482.500	20725.39	0.1743	0.3445	0.675	0.1142
483.000	20703.93	0.1787	0.3522	0.6875	0.1163
483.500	20682.52	0.1828	0.3603	0.7024	0.1185
484.000	20661.16	0.1859	0.3677	0.7185	0.12
484.500	20639.83	0.1878	0.3735	0.7312	0.1204
485.000	20618.56	0.1922	0.3814	0.7465	0.1224
485.500	20597.32	0.1999	0.3925	0.7678	0.1278
486.000	20576.13	0.2053	0.4015	0.7859	0.1324
486.500	20554.98	0.2076	0.4078	0.7984	0.1347
487.000	20533.88	0.2093	0.4136	0.8075	0.1342
487.500	20512.82	0.2122	0.4209	0.8191	0.1332
488.000	20491.80	0.2165	0.4294	0.8374	0.1345
488.500	20470.83	0.2206	0.4376	0.8551	0.1368
489.000	20449.90	0.2247	0.4458	0.871	0.1388
489.500	20429.01	0.2295	0.4547	0.8895	0.1409
490.000	20408.16	0.2342	0.4643	0.9086	0.1432
490.500	20387.36	0.2383	0.4742	0.9253	0.1459
491.000	20366.60	0.2427	0.4836	0.943	0.1483
491.500	20345.88	0.2478	0.4927	0.9628	0.1502
492.000	20325.20	0.2527	0.5031	0.982	0.1522
492.500	20304.57	0.2578	0.514	1.001	0.1549
493.000	20283.98	0.2633	0.5243	1.023	0.1586
493.500	20263.42	0.2683	0.534	1.043	0.1615
494.000	20242.91	0.2729	0.5438	1.061	0.1632
494.500	20222.45	0.2781	0.5536	1.08	0.165
495.000	20202.02	0.2834	0.564	1.1	0.1671
495.500	20181.63	0.2883	0.5756	1.12	0.1693
496.000	20161.29	0.2937	0.5877	1.143	0.1722
496.500	20140.99	0.2997	0.5995	1.167	0.1759
497.000	20120.72	0.3056	0.6109	1.189	0.1788
497.500	20100.50	0.3114	0.6219	1.211	0.1812
498.000	20080.32	0.3175	0.6332	1.233	0.1841
498.500	20060.18	0.3238	0.6458	1.257	0.1875
499.000	20040.08	0.3298	0.6589	1.281	0.1907
499.500	20020.02	0.3349	0.6697	1.304	0.1931
500.000	20000.00	0.3403	0.6801	1.326	0.1954
500.500	19980.02	0.3469	0.693	1.346	0.1986
501.000	19960.08	0.3535	0.7064	1.37	0.2023
501.500	19940.18	0.3594	0.7185	1.397	0.2056
502.000	19920.32	0.365	0.7296	1.42	0.2077
502.500	19900.50	0.3707	0.7408	1.442	0.21
503.000	19880.72	0.3761	0.7527	1.466	0.2136
503.500	19860.97	0.3816	0.7651	1.489	0.2168
504.000	19841.27	0.3876	0.7778	1.511	0.2188
504.500	19821.61	0.3941	0.7908	1.536	0.2213
505.000	19801.98	0.4002	0.8027	1.559	0.2247
505.500	19782.39	0.4052	0.8126	1.576	0.2283
506.000	19762.85	0.4104	0.8231	1.597	0.2314
506.500	19743.34	0.4166	0.8351	1.625	0.2338
507.000	19723.87	0.4226	0.8465	1.645	0.2358
507.500	19704.43	0.4281	0.8572	1.662	0.2383
508.000	19685.04	0.4333	0.8678	1.682	0.2419
508.500	19665.68	0.4381	0.8778	1.7	0.2445
509.000	19646.37	0.4429	0.8874	1.713	0.2459
509.500	19627.09	0.4482	0.8979	1.73	0.2479
510.000	19607.84	0.4531	0.9081	1.754	0.2506
510.500	19588.64	0.457	0.9167	1.78	0.2534
511.000	19569.47	0.4618	0.9262	1.799	0.2558
511.500	19550.34	0.4678	0.9371	1.811	0.258
512.000	19531.25	0.4727	0.9466	1.83	0.2603
512.500	19512.20	0.4766	0.9554	1.852	0.2627
513.000	19493.18	0.4806	0.9653	1.866	0.265
513.500	19474.20	0.4852	0.9746	1.88	0.2672
514.000	19455.25	0.4901	0.9833	1.895	0.2694
514.500	19436.35	0.4949	0.9933	1.898	0.272
515.000	19417.48	0.4991	1.004	1.913	0.2746
515.500	19398.64	0.5032	1.013	1.962	0.2767
516.000	19379.84	0.5077	1.021	1.992	0.2786
516.500	19361.08	0.5129	1.028	1.984	0.2806
517.000	19342.36	0.5179	1.036	1.989	0.2833
517.500	19323.67	0.5226	1.046	2.011	0.286
518.000	19305.02	0.5277	1.057	2.035	0.288
518.500	19286.40	0.5325	1.068	2.048	0.2903
519.000	19267.82	0.537	1.078	2.055	0.2929
519.500	19249.28	0.5412	1.084	2.069	0.2949
520.000	19230.77	0.5458	1.092	2.088	0.297
520.500	19212.30	0.5513	1.107	2.107	0.3
521.000	19193.86	0.5566	1.119	2.133	0.3026
521.500	19175.46	0.5614	1.126	2.158	0.3046
522.000	19157.09	0.5663	1.137	2.153	0.3074
522.500	19138.76	0.5719	1.149	2.154	0.3107
523.000	19120.46	0.5783	1.158	2.196	0.3137
523.500	19102.20	0.5837	1.17	2.228	0.3164
524.000	19083.97	0.5882	1.183	2.236	0.3188
524.500	19065.78	0.5943	1.192	2.27	0.3214
525.000	19047.62	0.601	1.201	2.316	0.3242
525.500	19029.50	0.6067	1.216	2.338	0.3273
526.000	19011.41	0.6124	1.231	2.353	0.3309
526.500	18993.35	0.6189	1.244	2.37	0.3346
527.000	18975.33	0.6255	1.257	2.383	0.3378
527.500	18957.35	0.6324	1.27	2.386	0.3407
528.000	18939.39	0.6397	1.283	2.387	0.3437
528.500	18921.48	0.6465	1.296	2.419	0.3468
529.000	18903.59	0.6527	1.309	2.48	0.35
529.500	18885.74	0.6589	1.324	2.519	0.3538
530.000	18867.92	0.6658	1.339	2.515	0.3578
530.500	18850.14	0.6736	1.354	2.492	0.3612
531.000	18832.39	0.6813	1.367	2.513	0.3645
531.500	18814.68	0.6884	1.38	2.584	0.3679
532.000	18796.99	0.6951	1.396	2.634	0.3712
532.500	18779.34	0.7022	1.414	2.625	0.3747
533.000	18761.73	0.7099	1.43	2.585	0.3785
533.500	18744.14	0.7176	1.442	2.606	0.3824
534.000	18726.59	0.7247	1.453	2.689	0.386
534.500	18709.07	0.7314	1.468	2.741	0.3891
535.000	18691.59	0.7375	1.483	2.717	0.3922
535.500	18674.14	0.7432	1.492	2.655	0.3956
536.000	18656.72	0.7495	1.5	2.642	0.3988
536.500	18639.33	0.7561	1.511	2.677	0.4017
537.000	18621.97	0.7623	1.528	2.696	0.4045
537.500	18604.65	0.768	1.544	2.692	0.407
538.000	18587.36	0.7734	1.552	2.698	0.4093
538.500	18570.10	0.7777	1.559	2.759	0.4119
539.000	18552.88	0.7815	1.568	2.837	0.4145
539.500	18535.68	0.7859	1.579	2.812	0.4164
540.000	18518.52	0.7904	1.59	2.797	0.4175
540.500	18501.39	0.7938	1.596	2.875	0.4183
541.000	18484.29	0.7949	1.597	2.899	0.4191
541.500	18467.22	0.7951	1.597	2.798	0.4199
542.000	18450.18	0.7966	1.601	2.668	0.4202
542.500	18433.18	0.7977	1.601	2.637	0.4204
543.000	18416.21	0.7971	1.594	2.732	0.4208
543.500	18399.26	0.796	1.594	2.835	0.4201
544.000	18382.35	0.7943	1.596	2.844	0.4183
544.500	18365.47	0.7912	1.592	2.779	0.4164
545.000	18348.62	0.7873	1.585	2.736	0.4142
545.500	18331.81	0.7829	1.578	2.738	0.4115
546.000	18315.02	0.7771	1.564	2.717	0.4085
546.500	18298.26	0.7703	1.546	2.698	0.4051
547.000	18281.54	0.7633	1.532	2.735	0.4013
547.500	18264.84	0.7556	1.52	2.74	0.3972
548.000	18248.18	0.7468	1.503	2.661	0.393
548.500	18231.54	0.7367	1.48	2.575	0.3881
549.000	18214.94	0.7258	1.458	2.535	0.3824
549.500	18198.36	0.7146	1.441	2.555	0.3761
550.000	18181.82	0.7023	1.419	2.561	0.3693
550.500	18165.30	0.6885	1.388	2.522	0.3622
551.000	18148.82	0.6746	1.36	2.502	0.3553
551.500	18132.37	0.66	1.33	2.488	0.3481
552.000	18115.94	0.6439	1.296	2.436	0.3395
552.500	18099.55	0.6269	1.262	2.365	0.3307
553.000	18083.18	0.6096	1.23	2.304	0.3223
553.500	18066.85	0.5921	1.196	2.276	0.3137
554.000	18050.54	0.5745	1.161	2.234	0.3045
554.500	18034.27	0.5563	1.125	2.146	0.2948
555.000	18018.02	0.5374	1.087	2.062	0.285
555.500	18001.80	0.518	1.048	1.997	0.2755
556.000	17985.61	0.4982	1.008	1.937	0.2657
556.500	17969.45	0.4786	0.9687	1.87	0.2556
557.000	17953.32	0.4596	0.9291	1.796	0.2456
557.500	17937.22	0.4402	0.8903	1.721	0.2358
558.000	17921.15	0.4204	0.852	1.649	0.226
558.500	17905.10	0.4014	0.813	1.577	0.2161
559.000	17889.09	0.3829	0.774	1.506	0.2065
559.500	17873.10	0.3645	0.7363	1.437	0.1976
560.000	17857.14	0.3468	0.7002	1.366	0.1891
560.500	17841.21	0.3298	0.665	1.297	0.1805
561.000	17825.31	0.313	0.6305	1.233	0.172
561.500	17809.44	0.2968	0.5973	1.172	0.1637
562.000	17793.59	0.2812	0.5656	1.108	0.1554
562.500	17777.78	0.2648	0.5338	1.046	0.1469
563.000	17761.99	0.2486	0.5028	0.9858	0.139
563.500	17746.23	0.2348	0.4748	0.9309	0.1326
564.000	17730.50	0.224	0.4505	0.8825	0.1275
564.500	17714.79	0.2138	0.4272	0.8361	0.1218
565.000	17699.12	0.1992	0.4002	0.7847	0.1132
565.500	17683.47	0.1809	0.37	0.7293	0.1026
566.000	17667.84	0.1652	0.3426	0.6783	0.09442
566.500	17652.25	0.1561	0.3222	0.6377	0.09064
567.000	17636.68	0.1513	0.3058	0.602	0.08973
567.500	17621.15	0.1446	0.2883	0.5647	0.08735
568.000	17605.63	0.1353	0.2695	0.5272	0.08281
568.500	17590.15	0.1264	0.2514	0.4918	0.07787
569.000	17574.69	0.1182	0.2345	0.4585	0.07347
569.500	17559.26	0.1106	0.219	0.4284	0.06994
570.000	17543.86	0.103	0.2043	0.4004	0.06632
570.500	17528.48	0.09573	0.1906	0.374	0.06258
571.000	17513.13	0.08967	0.1787	0.3496	0.05931
571.500	17497.81	0.08423	0.1674	0.3266	0.05635
572.000	17482.52	0.07876	0.1561	0.3046	0.0535
572.500	17467.25	0.07314	0.145	0.2838	0.05077
573.000	17452.01	0.06867	0.1358	0.2658	0.04891
573.500	17436.79	0.06629	0.1293	0.2509	0.04827
574.000	17421.60	0.06328	0.1223	0.2364	0.04665
574.500	17406.44	0.05823	0.1131	0.2201	0.04326
575.000	17391.30	0.05364	0.1048	0.204	0.04071
575.500	17376.19	0.05016	0.09795	0.1897	0.03948
576.000	17361.11	0.04685	0.09157	0.1772	0.03836
576.500	17346.05	0.04388	0.08572	0.1662	0.03723
577.000	17331.02	0.04149	0.08062	0.1563	0.03621
577.500	17316.02	0.03991	0.07662	0.1478	0.03542
578.000	17301.04	0.03842	0.07291	0.14	0.03438
578.500	17286.08	0.03624	0.06854	0.1322	0.0327
579.000	17271.16	0.03422	0.06465	0.1249	0.03162
579.500	17256.26	0.03266	0.06158	0.1185	0.03129
580.000	17241.38	0.03081	0.05806	0.1121	0.03036
580.500	17226.53	0.02935	0.05489	0.1063	0.02957
581.000	17211.70	0.02901	0.0532	0.1019	0.02993
581.500	17196.90	0.02863	0.05165	0.09777	0.03049
582.000	17182.13	0.02731	0.04921	0.09278	0.03018
582.500	17167.38	0.02482	0.04554	0.08628	0.02815
583.000	17152.66	0.02254	0.04201	0.07985	0.02576
583.500	17137.96	0.02199	0.04033	0.07596	0.02496
584.000	17123.29	0.02162	0.03907	0.07291	0.02504
584.500	17108.64	0.02061	0.03723	0.06934	0.02497
585.000	17094.02	0.01944	0.03502	0.06536	0.02416
585.500	17079.42	0.0185	0.03307	0.06165	0.02319
586.000	17064.85	0.01786	0.03174	0.05874	0.02267
586.500	17050.30	0.01698	0.03019	0.05599	0.0223
587.000	17035.78	0.01622	0.02872	0.05356	0.02215
587.500	17021.28	0.01645	0.02832	0.05217	0.02256
588.000	17006.80	0.01683	0.02804	0.05096	0.02327
588.500	16992.35	0.01646	0.02701	0.04891	0.02367
589.000	16977.93	0.01522	0.0255	0.04564	0.02283
589.500	16963.53	0.01372	0.02378	0.04192	0.02112
590.000	16949.15	0.01306	0.02227	0.03946	0.01995
590.500	16934.80	0.01304	0.02138	0.03795	0.01966
591.000	16920.47	0.01295	0.02092	0.03657	0.01981
591.500	16906.17	0.01222	0.01997	0.03493	0.0194
592.000	16891.89	0.01138	0.01895	0.03339	0.01886
592.500	16877.64	0.01131	0.01871	0.03257	0.01907
593.000	16863.41	0.01142	0.01852	0.03182	0.01936
593.500	16849.20	0.01128	0.01796	0.03083	0.01931
594.000	16835.02	0.01114	0.01759	0.03008	0.01932
594.500	16820.86	0.01124	0.01743	0.0296	0.0196
595.000	16806.72	0.01148	0.01716	0.02902	0.01998
595.500	16792.61	0.01089	0.01634	0.02755	0.01951
596.000	16778.52	0.009646	0.01519	0.02552	0.01838
596.500	16764.46	0.009495	0.01471	0.02466	0.01827
597.000	16750.42	0.009845	0.01458	0.02437	0.01857
597.500	16736.40	0.009491	0.01409	0.02341	0.01816
598.000	16722.41	0.008867	0.01342	0.0221	0.01755
598.500	16708.44	0.008309	0.01274	0.02074	0.01705
599.000	16694.49	0.007776	0.01206	0.01946	0.01646
599.500	16680.57	0.00731	0.01139	0.01843	0.0158
600.000	16666.67	0.007022	0.01084	0.01786	0.01532
600.500	16652.79	0.007073	0.01072	0.01789	0.01547
601.000	16638.94	0.007158	0.01073	0.01803	0.01584
601.500	16625.10	0.006817	0.01029	0.01757	0.01555
602.000	16611.30	0.006903	0.01033	0.01757	0.01574
602.500	16597.51	0.007804	0.01122	0.01848	0.01698
603.000	16583.75	0.008288	0.01156	0.01868	0.01769
603.500	16570.01	0.007746	0.01084	0.01748	0.01714
604.000	16556.29	0.006315	0.009437	0.01519	0.01553
604.500	16542.60	0.005476	0.00855	0.01365	0.01441
605.000	16528.93	0.005853	0.008666	0.01374	0.01456
605.500	16515.28	0.005651	0.008393	0.01344	0.01436
606.000	16501.65	0.005184	0.0079	0.01283	0.01398
606.500	16488.05	0.005687	0.008096	0.01308	0.01436
607.000	16474.46	0.005896	0.008158	0.01304	0.01444
607.500	16460.91	0.005237	0.007621	0.01213	0.01374
608.000	16447.37	0.004852	0.007074	0.01125	0.01325
608.500	16433.85	0.004748	0.006742	0.01071	0.01306
609.000	16420.36	0.004452	0.006595	0.01039	0.01285
609.500	16406.89	0.004326	0.006654	0.01017	0.01283
610.000	16393.44	0.004454	0.00676	0.009997	0.01296
610.500	16380.02	0.004443	0.006581	0.009824	0.01291
611.000	16366.61	0.004339	0.006227	0.009722	0.01277
611.500	16353.23	0.004325	0.005989	0.009732	0.01272
612.000	16339.87	0.004353	0.006053	0.009712	0.01282
612.500	16326.53	0.004462	0.006381	0.009784	0.01309
613.000	16313.21	0.004758	0.006728	0.01021	0.01349
613.500	16299.92	0.005001	0.006749	0.01033	0.01373
614.000	16286.64	0.004892	0.006303	0.00959	0.01354
614.500	16273.39	0.004303	0.005747	0.008455	0.0128
615.000	16260.16	0.003717	0.005353	0.00761	0.01203
615.500	16246.95	0.003912	0.005215	0.00759	0.01206
616.000	16233.77	0.004168	0.005115	0.007573	0.01219
616.500	16220.60	0.003934	0.004973	0.007055	0.01189
617.000	16207.46	0.003838	0.005116	0.006904	0.01191
617.500	16194.33	0.003825	0.005219	0.006888	0.01203
618.000	16181.23	0.003456	0.004737	0.006215	0.01156
618.500	16168.15	0.003226	0.004368	0.005699	0.01113
619.000	16155.09	0.003495	0.004614	0.005966	0.01128
619.500	16142.05	0.00396	0.005073	0.006557	0.01169
620.000	16129.03	0.004084	0.00516	0.006629	0.01189
620.500	16116.04	0.003558	0.004553	0.005657	0.01153
621.000	16103.06	0.00321	0.004043	0.004828	0.01104
621.500	16090.10	0.003347	0.004104	0.004856	0.01085
622.000	16077.17	0.003302	0.004397	0.005222	0.01115
622.500	16064.26	0.003387	0.004756	0.005635	0.01166
623.000	16051.36	0.003993	0.005084	0.00593	0.01199
623.500	16038.49	0.004309	0.005109	0.005797	0.01193
624.000	16025.64	0.003981	0.004732	0.005239	0.01151
624.500	16012.81	0.00337	0.004108	0.004604	0.01098
625.000	16000.00	0.00291	0.003647	0.003998	0.01044
625.500	15987.21	0.002873	0.003661	0.003559	0.01003
626.000	15974.44	0.00305	0.003904	0.003667	0.01006
626.500	15961.69	0.003154	0.003985	0.003946	0.0103
627.000	15948.96	0.003003	0.003636	0.003597	0.01025
627.500	15936.25	0.0029	0.003444	0.003265	0.01013
628.000	15923.57	0.003026	0.003719	0.003395	0.01012
628.500	15910.90	0.003038	0.003762	0.003207	0.009943
629.000	15898.25	0.002896	0.00352	0.002876	0.009792
629.500	15885.62	0.002778	0.003388	0.003051	0.01002
630.000	15873.02	0.002635	0.003225	0.002865	0.009931
630.500	15860.43	0.002406	0.002951	0.002027	0.009276
631.000	15847.86	0.00214	0.002812	0.001714	0.00887
631.500	15835.31	0.002039	0.002882	0.001966	0.008874
632.000	15822.78	0.002245	0.00306	0.002162	0.00899
632.500	15810.28	0.002418	0.003129	0.002197	0.00899
633.000	15797.79	0.00236	0.002954	0.002058	0.008834
633.500	15785.32	0.002173	0.002554	0.00172	0.008679
634.000	15772.87	0.001958	0.002209	0.001343	0.008501
634.500	15760.44	0.001806	0.002163	0.001118	0.00826
635.000	15748.03	0.001786	0.002169	0.001035	0.008112
635.500	15735.64	0.00188	0.002223	0.001119	0.008128
636.000	15723.27	0.001981	0.002531	0.001385	0.008235
636.500	15710.92	0.001904	0.002556	0.001395	0.008261
637.000	15698.59	0.001635	0.00202	0.0009507	0.008101
637.500	15686.27	0.001564	0.001807	0.0007255	0.007873
638.000	15673.98	0.001624	0.001986	0.0007763	0.007628
638.500	15661.71	0.001443	0.001946	0.0006545	0.007356
639.000	15649.45	0.001285	0.001732	0.0004641	0.00718
639.500	15637.22	0.001394	0.00159	0.0003865	0.00724
640.000	15625.00	0.001626	0.001716	0.0004161	0.007587
640.500	15612.80	0.001758	0.001867	0.0004044	0.007784
641.000	15600.62	0.001605	0.001645	0.0001713	0.007333
641.500	15588.46	0.001233	0.001205	-0.000254	0.006737
642.000	15576.32	0.0008741	0.0008862	-0.000602	0.006429
642.500	15564.20	0.0008434	0.001015	-0.0004317	0.00638
643.000	15552.10	0.0009771	0.001337	-4.195E-5	0.006557
643.500	15540.02	0.0009777	0.001452	5.108E-5	0.006823
644.000	15527.95	0.0009003	0.001399	-0.0001531	0.006698
644.500	15515.90	0.0008519	0.001259	-0.0004606	0.006219
645.000	15503.88	0.0008944	0.001078	-0.000602	0.005984
645.500	15491.87	0.0008601	0.0009513	-0.0006141	0.005961
646.000	15479.88	0.000737	0.001007	-0.0005472	0.006007
646.500	15467.90	0.001052	0.001382	-0.0002013	0.006345
647.000	15455.95	0.001535	0.001733	6.96E-5	0.006685
647.500	15444.02	0.001394	0.001494	-0.0003514	0.006437
648.000	15432.10	0.001131	0.001159	-0.0007446	0.006104
648.500	15420.20	0.001263	0.001208	-0.0005296	0.006157
649.000	15408.32	0.001537	0.001431	-0.0002001	0.006326
649.500	15396.46	0.001588	0.001476	-0.000164	0.006337
650.000	15384.62	0.001232	0.001161	-0.0004842	0.0061
650.500	15372.79	0.001086	0.001172	-0.0004207	0.006035
651.000	15360.98	0.00139	0.001659	0.0001607	0.006249
651.500	15349.19	0.001606	0.001785	0.0003323	0.006273
652.000	15337.42	0.001661	0.001633	9.744E-5	0.006227
652.500	15325.67	0.001708	0.001671	-5.442E-5	0.006395
653.000	15313.94	0.001713	0.001868	0.0001301	0.00648
653.500	15302.22	0.001353	0.0017	0.0001331	0.006057
654.000	15290.52	-7.09E-5	0.0001778	-0.00116	0.004583
654.500	15278.84	-0.003694	-0.003555	-0.003075	0.001044
655.000	15267.18	-0.004396	-0.003992	0.0007557	0.001525
655.500	15255.53	0.00664	0.007548	0.01656	0.01587
656.000	15243.90	0.01505	0.01626	0.02667	0.02705
656.500	15232.29	0.0143	0.01555	0.02432	0.02795
657.000	15220.70	0.008907	0.009961	0.01521	0.02226
657.500	15209.13	0.003196	0.003755	0.00482	0.01202
658.000	15197.57	0.0005954	0.0007306	-0.0009225	0.005132
658.500	15186.03	0.001881	0.002041	0.0005769	0.006592
659.000	15174.51	0.001908	0.002124	0.0006179	0.006773
659.500	15163.00	0.001546	0.001701	-0.0001147	0.006227
660.000	15151.52	0.001804	0.001797	-8.295E-5	0.006416
660.500	15140.05	0.001778	0.00164	-0.0001153	0.006206
661.000	15128.59	0.001624	0.001496	-0.0002733	0.005842
661.500	15117.16	0.001831	0.001835	-0.000235	0.006019
662.000	15105.74	0.001893	0.001836	-0.0001124	0.006204
662.500	15094.34	0.001656	0.001445	-8.009E-5	0.006173
663.000	15082.96	0.001513	0.001545	-0.0002278	0.006232
663.500	15071.59	0.001608	0.001833	-0.0002316	0.006191
664.000	15060.24	0.001859	0.001809	7.647E-5	0.005952
664.500	15048.91	0.001944	0.00168	0.0001534	0.006046
665.000	15037.59	0.001795	0.001539	-8.695E-5	0.006242
665.500	15026.30	0.001595	0.001368	-0.0003121	0.005835
666.000	15015.02	0.001592	0.001453	-0.0004715	0.005417
666.500	15003.75	0.001778	0.001795	-0.000558	0.005491
667.000	14992.50	0.00173	0.001789	-0.0004893	0.005703
667.500	14981.27	0.00159	0.001493	-0.000294	0.005794
668.000	14970.06	0.001707	0.001339	-0.0001049	0.005684
668.500	14958.86	0.001704	0.001385	-0.0001408	0.005494
669.000	14947.68	0.001481	0.00152	-0.0003725	0.005372
669.500	14936.52	0.001441	0.001539	-0.0004811	0.005407
670.000	14925.37	0.001391	0.001322	-0.0006295	0.005392
670.500	14914.24	0.001111	0.0009866	-0.000919	0.005187
671.000	14903.13	0.001148	0.001135	-0.0006445	0.005211
671.500	14892.03	0.001343	0.001491	-0.0001486	0.005342
672.000	14880.95	0.0009395	0.001091	-0.000613	0.004986
672.500	14869.89	0.0006852	0.0007346	-0.001056	0.0046
673.000	14858.84	0.001101	0.001069	-0.0006858	0.00462
673.500	14847.81	0.001155	0.001132	-0.0006857	0.004644
674.000	14836.80	0.0007785	0.0007825	-0.001183	0.004509
674.500	14825.80	0.0006389	0.0005586	-0.001435	0.004322
675.000	14814.81	0.0007408	0.0005525	-0.001255	0.00424
675.500	14803.85	0.0008226	0.0006491	-0.0009286	0.004285
676.000	14792.90	0.0005689	0.0006326	-0.001108	0.004274
676.500	14781.97	0.000296	0.0004685	-0.001493	0.004177
677.000	14771.05	0.0004177	0.0002593	-0.00149	0.004014
677.500	14760.15	0.0004947	0.000185	-0.001372	0.003678
678.000	14749.26	0.0004351	0.000309	-0.001317	0.003407
678.500	14738.39	0.0006157	0.0005136	-0.001231	0.003686
679.000	14727.54	0.00057	0.0004569	-0.001265	0.003759
679.500	14716.70	-3.595E-6	7.031E-5	-0.001505	0.003125
680.000	14705.88	-0.0002098	7.84E-5	-0.00162	0.00304
680.500	14695.08	0.0001405	0.0003962	-0.00147	0.003527
681.000	14684.29	0.0005277	0.0003578	-0.001162	0.003601
681.500	14673.51	0.0006491	0.000342	-0.001003	0.003602
682.000	14662.76	0.0004442	0.0005239	-0.001185	0.003727
682.500	14652.01	0.0001412	0.0002621	-0.001586	0.003318
683.000	14641.29	3.066E-5	-2.122E-5	-0.001742	0.002947
683.500	14630.58	0.0002594	0.0003642	-0.001312	0.003444
684.000	14619.88	0.0003863	0.0004515	-0.001089	0.003575
684.500	14609.20	0.0003645	0.0001069	-0.001207	0.003165
685.000	14598.54	0.000682	0.0004753	-0.0008333	0.003648
685.500	14587.89	0.0009015	0.000966	-0.0004326	0.004203
686.000	14577.26	0.0005644	0.0007502	-0.0006608	0.003724
686.500	14566.64	0.0002953	0.0005432	-0.00104	0.003188
687.000	14556.04	0.000378	0.000611	-0.001156	0.003151
687.500	14545.45	0.0005844	0.0006072	-0.0009444	0.003385
688.000	14534.88	0.0006224	0.0005086	-0.0009293	0.003389
688.500	14524.33	0.0004183	0.0004182	-0.001297	0.003053
689.000	14513.79	0.0003166	0.0004423	-0.001302	0.003078
689.500	14503.26	0.0004694	0.0005972	-0.0009255	0.003366
690.000	14492.75	0.0007686	0.0007808	-0.0006887	0.003374
690.500	14482.26	0.0007597	0.0006855	-0.0009128	0.003254
691.000	14471.78	0.000422	0.0003783	-0.001373	0.003173
691.500	14461.32	0.000374	0.0004179	-0.00129	0.003086
692.000	14450.87	0.0006415	0.0005941	-0.0009543	0.003049
692.500	14440.43	0.0008907	0.0005392	-0.0009438	0.003118
693.000	14430.01	0.0007348	0.000582	-0.00104	0.00319
693.500	14419.61	0.0004297	0.0007506	-0.001037	0.003203
694.000	14409.22	0.0006739	0.0007324	-0.000894	0.00317
694.500	14398.85	0.0009882	0.0006727	-0.0006737	0.003126
695.000	14388.49	0.0009018	0.0007351	-0.0005117	0.003144
695.500	14378.15	0.0008219	0.0007885	-0.00059	0.003324
696.000	14367.82	0.0008725	0.0008867	-0.0007721	0.003439
696.500	14357.50	0.0009132	0.001128	-0.0007702	0.003201
697.000	14347.20	0.0009032	0.001137	-0.0006599	0.00308
697.500	14336.92	0.0009069	0.0008757	-0.0006052	0.003327
698.000	14326.65	0.001075	0.0008947	-0.0007192	0.003615
698.500	14316.39	0.00132	0.001116	-0.0007293	0.003666
699.000	14306.15	0.001441	0.00121	-0.0003975	0.003418
699.500	14295.93	0.001306	0.001178	-0.0001668	0.003281
700.000	14285.71	0.001002	0.001089	-0.0002951	0.003307
700.500	14275.52	0.000817	0.001015	-0.0006666	0.00318
701.000	14265.34	0.0009502	0.001009	-0.0007989	0.003112
701.500	14255.17	0.001334	0.001083	-0.000449	0.003262
702.000	14245.01	0.001461	0.001183	-0.0001177	0.003287
702.500	14234.88	0.001277	0.001179	-0.0001496	0.003214
703.000	14224.75	0.001078	0.001007	-0.0005478	0.003297
703.500	14214.64	0.001046	0.001061	-0.0006776	0.003372
704.000	14204.55	0.001178	0.001348	-0.0003692	0.003343
704.500	14194.46	0.001273	0.001234	-0.0002895	0.003341
705.000	14184.40	0.001268	0.0008955	-0.0003985	0.00325
705.500	14174.34	0.001228	0.0008391	-0.0003526	0.002999
706.000	14164.31	0.001333	0.001142	-0.0001487	0.003039
706.500	14154.28	0.001483	0.001483	2.346E-5	0.003374
707.000	14144.27	0.001351	0.001349	-8.866E-5	0.003504
707.500	14134.28	0.001101	0.001025	-0.0003387	0.003271
708.000	14124.29	0.001003	0.0009029	-0.0004784	0.002864
708.500	14114.33	0.001149	0.0009813	-0.0003772	0.002867
709.000	14104.37	0.001324	0.001061	-0.0002407	0.003082
709.500	14094.43	0.001238	0.0009424	-0.0003608	0.002916
710.000	14084.51	0.001166	0.0008765	-0.0004041	0.002721
710.500	14074.60	0.001241	0.0009539	-0.0002492	0.002766
711.000	14064.70	0.001215	0.0009054	-0.0002636	0.002874
711.500	14054.81	0.001034	0.0007327	-0.0004741	0.002899
712.000	14044.94	0.0007746	0.000557	-0.0007238	0.002762
712.500	14035.09	0.0005458	0.0004035	-0.0008925	0.002479
713.000	14025.25	0.0004926	0.000411	-0.0008524	0.002278
713.500	14015.42	0.0007268	0.0007337	-0.0005435	0.002464
714.000	14005.60	0.001002	0.000872	-0.0003728	0.002605
714.500	13995.80	0.001023	0.0005867	-0.0005483	0.00241
715.000	13986.01	0.0006829	0.0005361	-0.0006035	0.002341
715.500	13976.24	0.0004412	0.0007197	-0.0003749	0.002498
716.000	13966.48	0.0007806	0.0007124	-3.841E-5	0.002646
716.500	13956.73	0.0008573	0.0005183	-3.557E-5	0.002474
717.000	13947.00	0.0004988	0.0003747	-0.0003414	0.002105
717.500	13937.28	0.0006919	0.0006008	-0.0003194	0.002156
718.000	13927.58	0.001038	0.000795	-0.0001411	0.002353
718.500	13917.88	0.0008622	0.000556	-0.000196	0.002224
719.000	13908.21	0.0005977	0.0003628	-0.0003725	0.001946
719.500	13898.54	0.0005247	0.0003894	-0.0005307	0.001842
720.000	13888.89	0.0005916	0.0004202	-0.0006022	0.00212
720.500	13879.25	0.0006206	0.0003999	-0.0006483	0.002207
721.000	13869.63	0.0004847	0.0002881	-0.0007316	0.001824
721.500	13860.01	0.00022	-8.506E-6	-0.0008442	0.001617
722.000	13850.42	-6.347E-5	-0.0003052	-0.0009988	0.00151
722.500	13840.83	-0.0002252	-0.0003395	-0.001164	0.001137
723.000	13831.26	-0.0001505	-0.0002182	-0.0011	0.0009849
723.500	13821.70	4.808E-5	-0.0001287	-0.0008465	0.001209
724.000	13812.15	5.954E-5	-0.0002016	-0.0007615	0.001391
724.500	13802.62	5.724E-5	-0.0001863	-0.0006373	0.001547
725.000	13793.10	0.0002473	0.0001065	-0.0002599	0.001797
725.500	13783.60	0.0004223	0.0003623	3.492E-5	0.002025
726.000	13774.10	0.0004875	0.000434	0.000195	0.002107
726.500	13764.62	0.0004758	0.0003676	0.0003521	0.001964
727.000	13755.16	0.0003614	0.000197	0.0001043	0.00164
727.500	13745.70	0.0001742	6.577E-7	-0.0005248	0.001317
728.000	13736.26	4.775E-5	-7.702E-5	-0.0006703	0.001294
728.500	13726.84	-7.041E-5	-5.34E-5	-0.0005398	0.001296
729.000	13717.42	-0.0002657	-5.629E-5	-0.000738	0.0009408
729.500	13708.02	-0.0003708	-0.0002331	-0.001021	0.0005488
730.000	13698.63	-0.0002894	-0.0004389	-0.001087	0.0004499
730.500	13689.25	-6.735E-5	-0.0002921	-0.0008056	0.0007635
731.000	13679.89	0.0001648	5.231E-5	-0.0003755	0.001135
731.500	13670.54	0.0002466	0.0002466	-0.0001172	0.001198
732.000	13661.20	2.687E-5	2.066E-6	-0.000326	0.0009171
732.500	13651.88	-0.0002772	-0.0004446	-0.000805	0.000481
733.000	13642.56	-0.00032	-0.0006034	-0.001086	0.0001807
733.500	13633.27	-0.0003759	-0.000576	-0.001129	9.775E-5
734.000	13623.98	-0.0004508	-0.0004701	-0.0009026	0.0002654
734.500	13614.70	-7.996E-5	-0.0002112	-0.0002953	0.0006928
735.000	13605.44	0.0003224	0.0001085	0.0002554	0.00113
735.500	13596.19	0.0002192	0.0002602	0.0002765	0.001249
736.000	13586.96	-0.0001537	-9.826E-5	-0.0001469	0.0008416
736.500	13577.73	-0.0003843	-0.0004874	-0.000502	0.0003587
737.000	13568.52	-0.0001661	-1.423E-5	-0.0002373	0.0005653
737.500	13559.32	-8.27E-5	0.0001904	-0.0003527	0.0006126
738.000	13550.14	-0.0004648	-0.0005504	-0.00128	-7.183E-5
738.500	13540.96	-0.0007382	-0.001041	-0.00168	-0.0006811
739.000	13531.80	-0.0007226	-0.0008659	-0.001312	-0.0006915
739.500	13522.65	-0.0005377	-0.0003286	-0.0007006	-8.73E-5
740.000	13513.51	-0.0002441	1.63E-5	-0.0001386	0.0004751
740.500	13504.39	-3.219E-6	-4.465E-6	9.046E-5	0.0005839
741.000	13495.28	-5.979E-5	-0.0001384	-0.0002635	0.0002685
741.500	13486.18	-0.0002654	-0.0003297	-0.0006926	-8.663E-5
742.000	13477.09	-0.0003848	-0.0005443	-0.0007728	-0.0002141
742.500	13468.01	-0.0003758	-0.0006214	-0.0009367	-0.0003989
743.000	13458.95	-0.0003741	-0.0005888	-0.001159	-0.0006198
743.500	13449.90	-0.0005301	-0.0005687	-0.001071	-0.0006179
744.000	13440.86	-0.0005769	-0.0004313	-0.0007232	-0.0003745
744.500	13431.83	-0.0003732	-0.0002242	-0.0003367	-5.372E-5
745.000	13422.82	-0.0001118	-0.0002714	-0.0001776	5.976E-5
745.500	13413.82	-0.0001258	-0.0004469	-0.0002931	-7.237E-5
746.000	13404.83	-0.0004893	-0.0004697	-0.0005315	-0.0002799
746.500	13395.85	-0.0004696	-0.0002767	-0.0005164	-0.0001966
747.000	13386.88	-9.362E-5	-1.044E-5	-0.0002588	4.991E-5
747.500	13377.93	-2.94E-5	9.058E-5	-8.95E-5	9.852E-6
748.000	13368.98	-6.771E-5	6.563E-5	-3.664E-6	2.716E-5
748.500	13360.05	3.963E-5	6.465E-6	3.103E-5	0.0002458
749.000	13351.13	0.0001321	-4.425E-5	-6.412E-5	0.0001041
749.500	13342.23	0.0002344	8.212E-5	-6.821E-5	-0.0001058
750.000	13333.33	0.0004237	0.0004576	0.0002387	0.0001688
750.500	13324.45	0.0005074	0.0006074	0.0004753	0.0005066
751.000	13315.58	0.0003882	0.0003737	0.0004019	0.0005287
751.500	13306.72	0.0001424	4.256E-5	9.725E-5	0.0001797
752.000	13297.87	-6.6E-5	-0.0002226	-0.0001265	-0.0001532
752.500	13289.04	-4.839E-5	-0.0002813	-1.484E-5	-0.0001264
753.000	13280.21	0.000318	3.292E-5	0.0003602	0.0001407
753.500	13271.40	0.0006663	0.0004761	0.0007522	0.0004607
754.000	13262.60	0.00054	0.0006333	0.0008919	0.0006457
754.500	13253.81	0.0003943	0.0005137	0.0007374	0.0004934
755.000	13245.03	0.0004525	0.0003317	0.0004576	0.0001216
755.500	13236.27	0.0003974	0.0003982	0.0004083	3.725E-5
756.000	13227.51	0.0003999	0.0005618	0.000601	0.000199
756.500	13218.77	0.0006248	0.0005372	0.0008187	0.0003475
757.000	13210.04	0.0006576	0.0002811	0.0007565	0.0003923
757.500	13201.32	0.0005625	0.0001886	0.000672	0.0004584
758.000	13192.61	0.0007179	0.0007059	0.001081	0.0007309
758.500	13183.92	0.0007608	0.000948	0.001452	0.0009437
759.000	13175.23	0.0005968	0.0006232	0.001458	0.0009731
759.500	13166.56	0.0007775	0.0007822	0.001496	0.001066
760.000	13157.89	0.0009818	0.001175	0.001436	0.001074
760.500	13149.24	0.0007071	0.001074	0.001032	0.0007632
761.000	13140.60	0.0004034	0.0006398	0.0006219	0.0003232
761.500	13131.98	0.0003221	0.0002237	0.0003871	-3.884E-5
762.000	13123.36	0.0003353	0.0001356	0.0002591	-0.0002053
762.500	13114.75	0.0003609	0.0002659	0.0003368	-0.0001737
763.000	13106.16	0.0003584	0.0003789	0.0005686	-5.893E-5
763.500	13097.58	0.000323	0.0003174	0.0005828	-7.134E-5
764.000	13089.01	0.0002571	0.0002484	0.0005057	-5.122E-5
764.500	13080.44	0.0002453	0.0004294	0.0006413	0.0002487
765.000	13071.90	0.0006113	0.0007498	0.0007859	0.0005718
765.500	13063.36	0.001051	0.000952	0.0008041	0.0006364
766.000	13054.83	0.0006962	0.0007645	0.0007213	0.0002968
766.500	13046.31	7.774E-6	0.0003374	0.0003312	-0.0002874
767.000	13037.81	-0.000368	-7.718E-5	-0.0003447	-0.0008069
767.500	13029.32	-0.0005322	-0.0003651	-0.0006301	-0.0009187
768.000	13020.83	-0.0003602	-0.0003048	-0.0001772	-0.0005148
768.500	13012.36	0.0002697	0.0002293	0.000833	0.0002344
769.000	13003.90	0.0007078	0.0007677	0.001512	0.0008563
769.500	12995.45	0.0006741	0.000911	0.001475	0.001061
770.000	12987.01	0.0004907	0.000548	0.001083	0.0008464
770.500	12978.59	0.0003139	0.0002192	0.0007116	0.0004599
771.000	12970.17	0.0001394	0.0003349	0.0004953	0.0001069
771.500	12961.76	-0.0001997	0.0002883	2.299E-5	-0.000375
772.000	12953.37	-0.0005434	-4.923E-5	-0.000468	-0.0008488
772.500	12944.98	-0.0005383	-0.0003226	-0.0003557	-0.0009726
773.000	12936.61	-0.0002702	-0.0003559	1.547E-5	-0.0008072
773.500	12928.25	-2.009E-5	-0.0002613	0.0001228	-0.000655
774.000	12919.90	-0.0001223	-0.0004268	-0.0003369	-0.0009208
774.500	12911.56	-0.0005255	-0.0007903	-0.0009254	-0.001358
775.000	12903.23	-0.0008834	-0.0009905	-0.001049	-0.001513
775.500	12894.91	-0.0006658	-0.0005829	-0.0007274	-0.001318
776.000	12886.60	-0.0002589	-0.0001147	-0.0004623	-0.001131
776.500	12878.30	-0.0005534	-0.0005805	-0.0008149	-0.001431
777.000	12870.01	-0.0008788	-0.0009168	-0.001042	-0.001728
777.500	12861.74	-0.000814	-0.0005863	-0.00076	-0.001703
778.000	12853.47	-0.0009672	-0.0006855	-0.0006631	-0.001699
778.500	12845.22	-0.00107	-0.0009219	-0.0006433	-0.001596
779.000	12836.97	-0.0006595	-0.0006007	-0.0002992	-0.001164
779.500	12828.74	-0.0001801	-0.0002069	0.0002255	-0.0006423
780.000	12820.51	-4.898E-5	-8.696E-6	0.0006723	-0.0003631
780.500	12812.30	-0.0003941	7.324E-5	0.0007761	-0.0005809
781.000	12804.10	-0.0006696	-9.734E-5	0.0003715	-0.001002
781.500	12795.91	-0.0006449	-0.0005736	-0.0004451	-0.001403
782.000	12787.72	-0.0009314	-0.001103	-0.001177	-0.001938
782.500	12779.55	-0.001234	-0.001196	-0.001391	-0.002232
783.000	12771.39	-0.001086	-0.0007239	-0.001021	-0.001977
783.500	12763.24	-0.001257	-0.0009224	-0.0008679	-0.002035
784.000	12755.10	-0.001679	-0.001725	-0.001189	-0.002461
784.500	12746.97	-0.001446	-0.001747	-0.001536	-0.002445
785.000	12738.85	-0.001218	-0.001394	-0.001657	-0.00237
785.500	12730.74	-0.001507	-0.001332	-0.001568	-0.002609
786.000	12722.65	-0.001587	-0.001484	-0.001605	-0.002761
786.500	12714.56	-0.001502	-0.001677	-0.0018	-0.002837
787.000	12706.48	-0.001699	-0.001793	-0.001987	-0.003053
787.500	12698.41	-0.002056	-0.001925	-0.002037	-0.003252
788.000	12690.36	-0.002194	-0.001969	-0.00195	-0.003218
788.500	12682.31	-0.001756	-0.001692	-0.001836	-0.002851
789.000	12674.27	-0.001433	-0.001631	-0.001703	-0.002612
789.500	12666.24	-0.001688	-0.001958	-0.001552	-0.002738
790.000	12658.23	-0.00189	-0.001754	-0.001446	-0.002721
790.500	12650.22	-0.001883	-0.001323	-0.001563	-0.002652
791.000	12642.23	-0.001861	-0.001494	-0.001961	-0.002861
791.500	12634.24	-0.001909	-0.001873	-0.002034	-0.002991
792.000	12626.26	-0.002134	-0.002078	-0.001813	-0.003011
792.500	12618.30	-0.002576	-0.002081	-0.002037	-0.003288
793.000	12610.34	-0.002554	-0.002049	-0.002272	-0.00327
793.500	12602.39	-0.001924	-0.002086	-0.002004	-0.002721
794.000	12594.46	-0.001959	-0.00205	-0.001487	-0.002619
794.500	12586.53	-0.002291	-0.001927	-0.00121	-0.002898
795.000	12578.62	-0.001886	-0.001818	-0.001538	-0.002963
795.500	12570.71	-0.001628	-0.001863	-0.002032	-0.003123
796.000	12562.81	-0.002021	-0.002172	-0.002332	-0.003513
796.500	12554.93	-0.002591	-0.002709	-0.002381	-0.003824
797.000	12547.05	-0.002779	-0.002807	-0.002155	-0.00379
797.500	12539.18	-0.002515	-0.002252	-0.001876	-0.003464
798.000	12531.33	-0.002632	-0.002149	-0.002169	-0.003422
798.500	12523.48	-0.002977	-0.002532	-0.002669	-0.003685
799.000	12515.64	-0.00292	-0.002742	-0.002603	-0.003885
799.500	12507.82	-0.002857	-0.002726	-0.002333	-0.003846
800.000	12500.00	-0.002814	-0.002504	-0.002088	-0.003562
800.500	12492.19	-0.002292	-0.00208	-0.00171	-0.003188
801.000	12484.39	-0.00195	-0.001884	-0.001483	-0.002939
801.500	12476.61	-0.00225	-0.002108	-0.001679	-0.002944
802.000	12468.83	-0.002385	-0.002198	-0.002165	-0.003141
802.500	12461.06	-0.002465	-0.002313	-0.002641	-0.003507
803.000	12453.30	-0.003016	-0.002829	-0.002799	-0.003945
803.500	12445.55	-0.003331	-0.002865	-0.002691	-0.003973
804.000	12437.81	-0.003069	-0.00236	-0.002443	-0.003607
804.500	12430.08	-0.002644	-0.002348	-0.002184	-0.003442
805.000	12422.36	-0.002409	-0.002478	-0.00214	-0.003374
805.500	12414.65	-0.00252	-0.002267	-0.002342	-0.003281
806.000	12406.95	-0.002819	-0.002127	-0.002382	-0.003545
806.500	12399.26	-0.002929	-0.002261	-0.002244	-0.003913
807.000	12391.57	-0.002616	-0.002596	-0.002206	-0.00389
807.500	12383.90	-0.002614	-0.002852	-0.002448	-0.003857
808.000	12376.24	-0.002984	-0.002798	-0.002701	-0.003864
808.500	12368.58	-0.002932	-0.002414	-0.002393	-0.003502
809.000	12360.94	-0.002765	-0.002303	-0.002191	-0.003299
809.500	12353.30	-0.002861	-0.002745	-0.002599	-0.003648
810.000	12345.68	-0.002892	-0.002955	-0.002875	-0.00395
810.500	12338.06	-0.002941	-0.002772	-0.002808	-0.004013
811.000	12330.46	-0.003181	-0.002536	-0.0026	-0.003956
811.500	12322.86	-0.002949	-0.002495	-0.002274	-0.003746
812.000	12315.27	-0.002484	-0.002589	-0.002138	-0.00355
812.500	12307.69	-0.002915	-0.002512	-0.002668	-0.003713
813.000	12300.12	-0.00325	-0.002429	-0.003012	-0.003969
813.500	12292.56	-0.002743	-0.002534	-0.002661	-0.003977
814.000	12285.01	-0.002604	-0.002713	-0.002631	-0.003762
814.500	12277.47	-0.002988	-0.002892	-0.00284	-0.003768
815.000	12269.94	-0.003323	-0.003015	-0.002702	-0.004284
815.500	12262.42	-0.003428	-0.002965	-0.002742	-0.004274
816.000	12254.90	-0.003243	-0.002927	-0.003074	-0.003798
816.500	12247.40	-0.00282	-0.003263	-0.00319	-0.004066
817.000	12239.90	-0.002581	-0.003397	-0.002991	-0.004412
817.500	12232.42	-0.00279	-0.00304	-0.002688	-0.004257
818.000	12224.94	-0.003139	-0.002975	-0.002722	-0.004379
818.500	12217.47	-0.003135	-0.002956	-0.00287	-0.004483
819.000	12210.01	-0.002629	-0.002498	-0.002761	-0.004035
819.500	12202.56	-0.002705	-0.002535	-0.00286	-0.004081
820.000	12195.12	-0.003191	-0.002875	-0.002957	-0.004464
820.500	12187.69	-0.002803	-0.002357	-0.002329	-0.003942
821.000	12180.27	-0.002567	-0.002307	-0.002123	-0.003769
821.500	12172.85	-0.003076	-0.00321	-0.002783	-0.004504
822.000	12165.45	-0.003026	-0.002981	-0.002695	-0.00432
822.500	12158.05	-0.002793	-0.002396	-0.002304	-0.003834
823.000	12150.67	-0.003175	-0.002949	-0.002656	-0.004297
823.500	12143.29	-0.003119	-0.003012	-0.002785	-0.004339
824.000	12135.92	-0.002663	-0.002394	-0.002379	-0.003787
824.500	12128.56	-0.002838	-0.00241	-0.002036	-0.003764
825.000	12121.21	-0.002933	-0.002428	-0.002085	-0.003992
825.500	12113.87	-0.00269	-0.002232	-0.002562	-0.004206
826.000	12106.54	-0.003225	-0.002982	-0.003135	-0.004737
826.500	12099.21	-0.003465	-0.003454	-0.003124	-0.004703
827.000	12091.90	-0.002326	-0.002374	-0.002291	-0.003565
827.500	12084.59	-0.001829	-0.001753	-0.001923	-0.003329
828.000	12077.29	-0.002528	-0.002268	-0.002375	-0.004245
828.500	12070.01	-0.003348	-0.003016	-0.002958	-0.004891
829.000	12062.73	-0.003522	-0.003201	-0.002819	-0.004809
829.500	12055.46	-0.003241	-0.003022	-0.002354	-0.004516
830.000	12048.19	-0.003677	-0.003731	-0.003386	-0.005233
830.500	12040.94	-0.00385	-0.004008	-0.004106	-0.005833
831.000	12033.69	-0.002914	-0.002752	-0.002836	-0.005131
831.500	12026.46	-0.002759	-0.002266	-0.002316	-0.004504
832.000	12019.23	-0.003439	-0.002806	-0.002919	-0.00448
832.500	12012.01	-0.00362	-0.002998	-0.003111	-0.004674
833.000	12004.80	-0.003465	-0.00293	-0.003144	-0.00481
833.500	11997.60	-0.003196	-0.002771	-0.003077	-0.004639
834.000	11990.41	-0.002715	-0.002394	-0.00234	-0.004039
834.500	11983.22	-0.002581	-0.002285	-0.001813	-0.003777
835.000	11976.05	-0.002992	-0.002641	-0.00213	-0.004226
835.500	11968.88	-0.002939	-0.002618	-0.002266	-0.004309
836.000	11961.72	-0.002717	-0.002441	-0.002342	-0.004179
836.500	11954.57	-0.003158	-0.002816	-0.00299	-0.004605
837.000	11947.43	-0.003247	-0.003061	-0.003208	-0.004934
837.500	11940.30	-0.002938	-0.002942	-0.00287	-0.004914
838.000	11933.17	-0.003405	-0.003012	-0.003007	-0.005012
838.500	11926.06	-0.003707	-0.003306	-0.003144	-0.00515
839.000	11918.95	-0.003185	-0.003521	-0.002826	-0.00508
839.500	11911.85	-0.003133	-0.003224	-0.002689	-0.004726
840.000	11904.76	-0.003652	-0.003002	-0.002945	-0.004637
840.500	11897.68	-0.003982	-0.00349	-0.003332	-0.005187
841.000	11890.61	-0.003432	-0.003594	-0.003214	-0.005144
841.500	11883.54	-0.00272	-0.003332	-0.002842	-0.004584
842.000	11876.48	-0.003383	-0.003785	-0.003118	-0.004817
842.500	11869.44	-0.004078	-0.004097	-0.003349	-0.005244
843.000	11862.40	-0.003913	-0.003735	-0.003115	-0.005399
843.500	11855.36	-0.004066	-0.003612	-0.003162	-0.005896
844.000	11848.34	-0.004172	-0.003684	-0.003226	-0.006107
844.500	11841.33	-0.003611	-0.003507	-0.002874	-0.005383
845.000	11834.32	-0.003405	-0.003126	-0.002735	-0.004814
845.500	11827.32	-0.003585	-0.00282	-0.0029	-0.004897
846.000	11820.33	-0.00338	-0.002901	-0.002985	-0.005342
846.500	11813.35	-0.0032	-0.003229	-0.003176	-0.005639
847.000	11806.38	-0.003431	-0.003488	-0.003442	-0.005573
847.500	11799.41	-0.003916	-0.003377	-0.003342	-0.005407
848.000	11792.45	-0.004019	-0.003247	-0.003196	-0.005505
848.500	11785.50	-0.003489	-0.003364	-0.003262	-0.005823
849.000	11778.56	-0.003257	-0.003234	-0.002953	-0.005497
849.500	11771.63	-0.003519	-0.003031	-0.002588	-0.005112
850.000	11764.71	-0.003875	-0.003258	-0.002894	-0.005729
850.500	11757.79	-0.004079	-0.00362	-0.003438	-0.006102
851.000	11750.88	-0.004096	-0.003958	-0.003642	-0.005895
851.500	11743.98	-0.004025	-0.00434	-0.003171	-0.006034
852.000	11737.09	-0.003574	-0.004022	-0.002281	-0.005381
852.500	11730.21	-0.002783	-0.002937	-0.001404	-0.003768
853.000	11723.33	-0.002417	-0.002511	-0.0008738	-0.003672
853.500	11716.46	-0.002561	-0.002617	-0.0007414	-0.004277
854.000	11709.60	-0.002875	-0.002507	-0.0008904	-0.003818
854.500	11702.75	-0.003035	-0.002494	-0.001134	-0.003886
855.000	11695.91	-0.003161	-0.002907	-0.001605	-0.004848
855.500	11689.07	-0.003654	-0.003759	-0.002549	-0.005542
856.000	11682.24	-0.004163	-0.00436	-0.003172	-0.006101
856.500	11675.42	-0.004182	-0.004175	-0.003008	-0.006421
857.000	11668.61	-0.003516	-0.003361	-0.002619	-0.0057
857.500	11661.81	-0.003177	-0.002861	-0.002601	-0.005208
858.000	11655.01	-0.003749	-0.00332	-0.003016	-0.00591
858.500	11648.22	-0.003575	-0.003853	-0.002811	-0.005735
859.000	11641.44	-0.003003	-0.003945	-0.00221	-0.004921
859.500	11634.67	-0.00347	-0.003646	-0.002257	-0.005201
860.000	11627.91	-0.003741	-0.003395	-0.002903	-0.005941
860.500	11621.15	-0.003419	-0.003389	-0.003549	-0.006392
861.000	11614.40	-0.003695	-0.003431	-0.003441	-0.006411
861.500	11607.66	-0.004181	-0.003454	-0.003061	-0.006175
862.000	11600.93	-0.00433	-0.003553	-0.003064	-0.006013
862.500	11594.20	-0.00447	-0.003939	-0.0034	-0.006228
863.000	11587.49	-0.00412	-0.004054	-0.003271	-0.006242
863.500	11580.78	-0.003	-0.003462	-0.002254	-0.005585
864.000	11574.07	-0.003017	-0.003462	-0.002203	-0.005661
864.500	11567.38	-0.004157	-0.004035	-0.003337	-0.00657
865.000	11560.69	-0.004554	-0.003933	-0.004034	-0.007022
865.500	11554.02	-0.004483	-0.003716	-0.003602	-0.006827
866.000	11547.34	-0.004583	-0.00399	-0.002619	-0.006435
866.500	11540.68	-0.004892	-0.004495	-0.002723	-0.006527
867.000	11534.03	-0.004701	-0.004415	-0.003073	-0.006568
867.500	11527.38	-0.00375	-0.003484	-0.002561	-0.006087
868.000	11520.74	-0.003546	-0.003187	-0.002283	-0.006082
868.500	11514.10	-0.004202	-0.003549	-0.002691	-0.006534
869.000	11507.48	-0.004674	-0.003625	-0.003355	-0.006701
869.500	11500.86	-0.004444	-0.003827	-0.003354	-0.006732
870.000	11494.25	-0.003737	-0.003997	-0.002711	-0.006732
870.500	11487.65	-0.003418	-0.003324	-0.002533	-0.006589
871.000	11481.06	-0.003942	-0.003344	-0.003028	-0.006718
871.500	11474.47	-0.004754	-0.004523	-0.003583	-0.007067
872.000	11467.89	-0.004076	-0.004128	-0.002979	-0.006541
872.500	11461.32	-0.002994	-0.00304	-0.002052	-0.00569
873.000	11454.75	-0.003258	-0.003311	-0.002127	-0.005638
873.500	11448.20	-0.003681	-0.003905	-0.00248	-0.006246
874.000	11441.65	-0.003687	-0.003942	-0.002384	-0.006687
874.500	11435.11	-0.003597	-0.003341	-0.001668	-0.006154
875.000	11428.57	-0.003341	-0.002931	-0.001325	-0.005849
875.500	11422.04	-0.003182	-0.003191	-0.001787	-0.006378
876.000	11415.53	-0.00381	-0.003737	-0.00231	-0.006785
876.500	11409.01	-0.004431	-0.00405	-0.002737	-0.006827
877.000	11402.51	-0.004414	-0.003979	-0.003134	-0.006836
877.500	11396.01	-0.004773	-0.00412	-0.003378	-0.007423
878.000	11389.52	-0.00482	-0.004227	-0.003104	-0.007608
878.500	11383.04	-0.003464	-0.003672	-0.002011	-0.006159
879.000	11376.56	-0.002414	-0.002656	-0.0004534	-0.004553
879.500	11370.10	-0.002608	-0.002031	0.0004717	-0.004288
880.000	11363.64	-0.003562	-0.002744	-0.0004799	-0.005929
880.500	11357.18	-0.003855	-0.003412	-0.001743	-0.007261
881.000	11350.74	-0.003302	-0.003184	-0.002031	-0.006959
881.500	11344.30	-0.003948	-0.003307	-0.00217	-0.006723
882.000	11337.87	-0.004477	-0.003604	-0.00234	-0.006837
882.500	11331.44	-0.003422	-0.003418	-0.002337	-0.006874
883.000	11325.03	-0.003276	-0.003043	-0.002155	-0.006866
883.500	11318.62	-0.004118	-0.003318	-0.002173	-0.007056
884.000	11312.22	-0.004292	-0.004563	-0.002581	-0.007527
884.500	11305.82	-0.003979	-0.004086	-0.001944	-0.007378
885.000	11299.44	-0.003516	-0.002171	-0.0006355	-0.006558
885.500	11293.05	-0.003065	-0.002613	-0.001054	-0.006158
886.000	11286.68	-0.003602	-0.004112	-0.002223	-0.00644
886.500	11280.32	-0.004809	-0.004389	-0.002451	-0.006814
887.000	11273.96	-0.004053	-0.003116	-0.001266	-0.006058
887.500	11267.61	-0.00272	-0.002051	-6.997E-5	-0.005281
888.000	11261.26	-0.003161	-0.002795	-0.0002836	-0.005856
888.500	11254.92	-0.004332	-0.004015	-0.001077	-0.006571
889.000	11248.59	-0.004607	-0.004207	-0.001383	-0.006623
889.500	11242.27	-0.003221	-0.002868	-0.0007234	-0.00613
890.000	11235.96	-0.002979	-0.002445	-0.000567	-0.005946
890.500	11229.65	-0.004385	-0.00357	-0.001348	-0.006386
891.000	11223.34	-0.004531	-0.004053	-0.001826	-0.006908
891.500	11217.05	-0.004281	-0.00384	-0.002202	-0.007132
892.000	11210.76	-0.004832	-0.00386	-0.002856	-0.007182
892.500	11204.48	-0.004912	-0.004806	-0.003268	-0.007836
893.000	11198.21	-0.004638	-0.00514	-0.003096	-0.008436
893.500	11191.94	-0.004747	-0.003608	-0.002446	-0.008092
894.000	11185.68	-0.004838	-0.003369	-0.002138	-0.007833
894.500	11179.43	-0.00473	-0.00463	-0.002312	-0.007862
895.000	11173.18	-0.004479	-0.004808	-0.002396	-0.007507
895.500	11166.95	-0.003549	-0.003687	-0.001846	-0.006781
896.000	11160.71	-0.002551	-0.002397	-0.0009782	-0.006069
896.500	11154.49	-0.003252	-0.002558	-0.0009611	-0.005922
897.000	11148.27	-0.003834	-0.003437	-0.001409	-0.006645
897.500	11142.06	-0.002972	-0.003811	-0.001633	-0.007681
898.000	11135.86	-0.003101	-0.003478	-0.001655	-0.007203
898.500	11129.66	-0.004078	-0.003078	-0.00166	-0.006511
899.000	11123.47	-0.004489	-0.00333	-0.001901	-0.007595
899.500	11117.29	-0.004842	-0.00383	-0.002638	-0.008425
900.000	11111.11	-0.00498	-0.004012	-0.003037	-0.008182
900.500	11104.94	-0.004217	-0.003666	-0.001965	-0.007759
901.000	11098.78	-0.003777	-0.004009	-0.00156	-0.00753
901.500	11092.62	-0.003741	-0.004657	-0.002018	-0.007299
902.000	11086.47	-0.002537	-0.003339	-0.0005582	-0.006606
902.500	11080.33	-0.00256	-0.002788	4.691E-5	-0.00678
903.000	11074.20	-0.004893	-0.004661	-0.002111	-0.008119
903.500	11068.07	-0.004842	-0.004426	-0.002545	-0.007587
904.000	11061.95	-0.003232	-0.003103	-0.001323	-0.006456
904.500	11055.83	-0.003327	-0.003812	-0.001082	-0.007346
905.000	11049.72	-0.003792	-0.004076	-0.001735	-0.008091
905.500	11043.62	-0.003826	-0.003289	-0.0023	-0.007748
906.000	11037.53	-0.003824	-0.003109	-0.001831	-0.007271
906.500	11031.44	-0.003928	-0.003283	-0.001402	-0.00755
907.000	11025.36	-0.004145	-0.003418	-0.001741	-0.008463
907.500	11019.28	-0.00434	-0.003628	-0.002325	-0.00874
908.000	11013.22	-0.003848	-0.003511	-0.00234	-0.007994
908.500	11007.15	-0.002954	-0.003136	-0.00176	-0.007023
909.000	11001.10	-0.003912	-0.003749	-0.002066	-0.007866
909.500	10995.05	-0.005623	-0.004669	-0.002946	-0.009373
910.000	10989.01	-0.005698	-0.004527	-0.00322	-0.009213
910.500	10982.98	-0.004595	-0.003771	-0.002812	-0.00778
911.000	10976.95	-0.003204	-0.003	-0.001751	-0.006201
911.500	10970.93	-0.002404	-0.002614	-0.0003981	-0.005648
912.000	10964.91	-0.003412	-0.002906	-0.0009743	-0.006674
912.500	10958.90	-0.005254	-0.003905	-0.003008	-0.008366
913.000	10952.90	-0.004734	-0.005153	-0.002687	-0.008536
913.500	10946.91	-0.003576	-0.005123	-0.001662	-0.007791
914.000	10940.92	-0.003843	-0.003764	-0.002146	-0.007657
914.500	10934.94	-0.004406	-0.004141	-0.003037	-0.00888
915.000	10928.96	-0.004619	-0.005321	-0.003072	-0.009341
915.500	10922.99	-0.004405	-0.004871	-0.001792	-0.007393
916.000	10917.03	-0.003864	-0.003088	-0.0003834	-0.006428
916.500	10911.07	-0.003731	-0.001915	2.207E-5	-0.007225
917.000	10905.13	-0.004597	-0.003189	-0.0009185	-0.007966
917.500	10899.18	-0.004413	-0.003954	-0.00117	-0.007618
918.000	10893.25	-0.003282	-0.003161	-0.0003415	-0.007034
918.500	10887.32	-0.004006	-0.003114	-0.0004031	-0.008369
919.000	10881.39	-0.005075	-0.003692	-0.001278	-0.009387
919.500	10875.48	-0.004641	-0.00404	-0.002008	-0.008524
920.000	10869.57	-0.003481	-0.003921	-0.001806	-0.008237
920.500	10863.66	-0.003098	-0.004048	-0.001347	-0.008423
921.000	10857.76	-0.004305	-0.004859	-0.001664	-0.008324
921.500	10851.87	-0.005645	-0.005067	-0.002722	-0.009328
922.000	10845.99	-0.005748	-0.004846	-0.003339	-0.01032
922.500	10840.11	-0.004365	-0.005163	-0.002477	-0.009341
923.000	10834.24	-0.003938	-0.005083	-0.002142	-0.0091
923.500	10828.37	-0.004856	-0.004484	-0.002779	-0.009941
924.000	10822.51	-0.005033	-0.004361	-0.002723	-0.00927
924.500	10816.66	-0.004584	-0.004467	-0.002136	-0.00848
925.000	10810.81	-0.004204	-0.004545	-0.001942	-0.008914
925.500	10804.97	-0.004209	-0.00482	-0.002931	-0.009721
926.000	10799.14	-0.004321	-0.004185	-0.003288	-0.009755
926.500	10793.31	-0.004431	-0.002728	-0.00193	-0.008852
927.000	10787.49	-0.005217	-0.004048	-0.001736	-0.008883
927.500	10781.67	-0.005462	-0.005865	-0.002134	-0.009239
928.000	10775.86	-0.003867	-0.004153	-0.00104	-0.008445
928.500	10770.06	-0.003049	-0.002712	-8.181E-5	-0.00808
929.000	10764.26	-0.003927	-0.002988	-0.0003909	-0.00871
929.500	10758.47	-0.005172	-0.003293	-0.001764	-0.009532
930.000	10752.69	-0.005856	-0.004414	-0.003159	-0.01043
930.500	10746.91	-0.005786	-0.006176	-0.003859	-0.01108
931.000	10741.14	-0.005546	-0.006493	-0.003808	-0.01078
931.500	10735.37	-0.005462	-0.005516	-0.002365	-0.01015
932.000	10729.61	-0.005652	-0.004508	-0.0003863	-0.009811
932.500	10723.86	-0.006031	-0.004753	-0.001413	-0.009511
933.000	10718.11	-0.005809	-0.005073	-0.003299	-0.009266
933.500	10712.37	-0.004593	-0.003961	-0.002557	-0.009063
934.000	10706.64	-0.003939	-0.002761	-0.001237	-0.008301
934.500	10700.91	-0.004136	-0.002715	-0.001148	-0.007865
935.000	10695.19	-0.004624	-0.004276	-0.002724	-0.009232
935.500	10689.47	-0.006178	-0.006349	-0.004314	-0.01111
936.000	10683.76	-0.007331	-0.006916	-0.004224	-0.01163
936.500	10678.06	-0.00504	-0.004443	-0.001966	-0.009805
937.000	10672.36	-0.002941	-0.002833	-0.000408	-0.008306
937.500	10666.67	-0.003896	-0.00431	-0.001306	-0.009035
938.000	10660.98	-0.005995	-0.005909	-0.002935	-0.01074
938.500	10655.30	-0.00634	-0.005703	-0.002658	-0.0113
939.000	10649.63	-0.004356	-0.004003	-0.0002206	-0.01008
939.500	10643.96	-0.004453	-0.004022	-0.0004914	-0.009967
940.000	10638.30	-0.005271	-0.005091	-0.001926	-0.01019
940.500	10632.64	-0.003672	-0.004799	-0.0007587	-0.008878
941.000	10626.99	-0.003818	-0.004048	-0.000611	-0.008745
941.500	10621.35	-0.005335	-0.003345	-0.00221	-0.009704
942.000	10615.71	-0.004142	-0.002634	-0.002886	-0.00938
942.500	10610.08	-0.003426	-0.003238	-0.002288	-0.01001
943.000	10604.45	-0.004121	-0.004326	-0.00104	-0.01105
943.500	10598.83	-0.002977	-0.003079	-0.0001786	-0.008537
944.000	10593.22	-0.003385	-0.003242	-0.0008819	-0.007732
944.500	10587.61	-0.006251	-0.006079	-0.002555	-0.01115
945.000	10582.01	-0.00498	-0.005274	-0.002019	-0.01151
945.500	10576.41	-0.003333	-0.003022	-0.001138	-0.009877
946.000	10570.82	-0.00579	-0.003404	-0.002242	-0.009831
946.500	10565.24	-0.005126	-0.003447	-0.002273	-0.009264
947.000	10559.66	-0.002891	-0.003488	-0.00128	-0.008516
947.500	10554.09	-0.004751	-0.005052	-0.00109	-0.00918
948.000	10548.52	-0.005417	-0.003707	-0.000329	-0.009366
948.500	10542.96	-0.004002	-0.001546	-0.0001671	-0.00907
949.000	10537.41	-0.00474	-0.005139	-0.003174	-0.01001
949.500	10531.86	-0.005429	-0.006466	-0.004015	-0.01012
950.000	10526.32	-0.004766	-0.002543	-0.001114	-0.009111
950.500	10520.78	-0.004756	-0.001496	-3.452E-5	-0.009789
951.000	10515.25	-0.004388	-0.003367	-0.0003103	-0.009799
951.500	10509.72	-0.003239	-0.004875	-0.0003381	-0.00792
952.000	10504.20	-0.003711	-0.003734	-0.0009218	-0.008205
952.500	10498.69	-0.003224	-0.001948	-0.0005348	-0.009376
953.000	10493.18	-3.08E-5	-0.002157	0.001559	-0.008964
953.500	10487.68	-0.0009251	-0.002734	0.001082	-0.009407
954.000	10482.18	-0.003944	-0.002902	-0.000718	-0.01064
954.500	10476.69	-0.002752	-0.003084	0.0001248	-0.01084
955.000	10471.20	-0.001584	-0.003933	0.0008787	-0.01046
955.500	10465.72	-0.002454	-0.004293	0.0006117	-0.009857
956.000	10460.25	-0.00306	-0.00243	0.001032	-0.009092
956.500	10454.78	-0.001857	-0.002282	0.001248	-0.009604
957.000	10449.32	-0.0004298	-0.004701	0.0005004	-0.01082
957.500	10443.86	-0.00298	-0.004894	-0.0006017	-0.009786
958.000	10438.41	-0.005342	-0.002921	-0.0006182	-0.009273
958.500	10432.97	-0.004132	-0.00165	0.0005235	-0.01082
959.000	10427.53	-0.00299	-0.004221	0.0003259	-0.01024
959.500	10422.09	-0.002268	-0.006176	-0.0006277	-0.008927
960.000	10416.67	-0.001713	-0.003565	-0.0007596	-0.009492
960.500	10411.24	-0.004251	-0.002588	-0.0003465	-0.009582
961.000	10405.83	-0.0063	-0.00296	0.0006716	-0.00918
961.500	10400.42	-0.003242	-0.001296	0.001974	-0.00963
962.000	10395.01	-0.00248	-0.002451	0.0009139	-0.00967
962.500	10389.61	-0.004802	-0.004993	-0.0009239	-0.009119
963.000	10384.22	-0.004161	-0.002552	0.0007189	-0.008994
963.500	10378.83	-0.002253	9.781E-5	0.002407	-0.008877
964.000	10373.44	-0.001552	-0.0007326	0.002377	-0.008291
964.500	10368.07	-0.00252	-0.003137	0.002939	-0.00739
965.000	10362.69	-0.003716	-0.002971	0.002787	-0.007426
965.500	10357.33	-0.004238	7.875E-5	0.001228	-0.008473
966.000	10351.97	-0.004931	-0.0001654	0.0006123	-0.008469
966.500	10346.61	-0.005387	-0.002357	0.001056	-0.008722
967.000	10341.26	-0.004444	-0.002541	0.002332	-0.00985
967.500	10335.92	-0.001298	-0.0004105	0.005659	-0.007805
968.000	10330.58	-0.0002153	0.0002984	0.006131	-0.005815
968.500	10325.25	-0.004318	-0.003366	-7.62E-6	-0.008607
969.000	10319.92	-0.00454	-0.005591	-0.00195	-0.01064
969.500	10314.60	-0.001378	-0.004198	0.001197	-0.009947
970.000	10309.28	-0.002826	-0.001948	0.001419	-0.009562
970.500	10303.97	-0.006234	-0.002756	-0.001613	-0.01295
971.000	10298.66	-0.007267	-0.005231	-0.004324	-0.01623
971.500	10293.36	-0.003926	-0.003533	-0.002202	-0.01089
972.000	10288.07	-0.001049	-0.001792	0.002327	-0.007564
972.500	10282.78	-0.001597	-0.002671	0.004579	-0.01161
973.000	10277.49	-0.003163	-0.002825	0.001043	-0.0131
973.500	10272.21	-0.005809	-0.004534	-0.002218	-0.01199
974.000	10266.94	-0.007821	-0.007692	-0.0002595	-0.01114
974.500	10261.67	-0.003276	-0.004232	0.002272	-0.009925
975.000	10256.41	0.0005085	0.0006352	0.003223	-0.009023
975.500	10251.15	-0.003772	-0.001103	0.00261	-0.009283
976.000	10245.90	-0.004522	-0.004188	0.0008076	-0.0097
976.500	10240.66	-0.001336	-0.004532	-0.0003444	-0.009011
977.000	10235.41	-0.001158	-0.001865	0.0009731	-0.007344
977.500	10230.18	-0.0007732	-0.0003228	0.003166	-0.008939
978.000	10224.95	-0.000234	-0.001681	0.003676	-0.01218
978.500	10219.72	-0.002751	-0.00416	0.001112	-0.01126
979.000	10214.50	-0.003079	-0.004271	0.0001858	-0.009452
979.500	10209.29	-0.0003211	-0.002226	0.001851	-0.00993
980.000	10204.08	-0.0004583	-0.002467	0.00158	-0.01207
980.500	10198.88	-0.00276	-0.005222	0.0005968	-0.01215
981.000	10193.68	-0.00404	-0.00782	0.000599	-0.009605
981.500	10188.49	-0.002245	-0.006544	0.0006177	-0.009851
982.000	10183.30	-0.0014	-0.003657	0.0004704	-0.01185
982.500	10178.12	-0.00415	-0.002665	0.0001171	-0.01293
983.000	10172.94	-0.005232	-0.003634	-0.0008823	-0.01341
983.500	10167.77	-0.002988	-0.00336	-0.0001694	-0.01194
984.000	10162.60	-0.0001814	-0.0004049	0.00255	-0.00896
984.500	10157.44	-0.003041	-0.001648	-0.001088	-0.0119
985.000	10152.28	-0.007517	-0.004953	-0.004865	-0.01642
985.500	10147.13	-0.005232	-0.003521	0.002214	-0.01321
986.000	10141.99	-0.001832	-0.002113	0.005672	-0.0101
986.500	10136.85	-0.001189	-0.003038	0.001671	-0.01133
987.000	10131.71	-0.002561	-0.003881	4.34E-5	-0.01363
987.500	10126.58	-0.004605	-0.002223	0.002001	-0.01132
988.000	10121.46	-0.005341	-1.697E-5	0.00366	-0.006496
988.500	10116.34	-0.003197	-0.002663	0.0002964	-0.00865
989.000	10111.22	-0.001946	-0.005612	-0.0004966	-0.01132
989.500	10106.11	-0.00383	-0.004981	0.003824	-0.01014
990.000	10101.01	-0.00564	-0.003511	0.002676	-0.01182
990.500	10095.91	-0.004937	-0.003572	-0.001364	-0.01325
991.000	10090.82	-0.001879	-0.004823	-0.002224	-0.01128
991.500	10085.73	-0.0004333	-0.003129	-0.000216	-0.01176
992.000	10080.65	-0.001469	-0.001282	0.001673	-0.01294
992.500	10075.57	-0.003205	-0.002553	0.001402	-0.01105
993.000	10070.49	-0.0028	-0.001341	0.001832	-0.009451
993.500	10065.43	-0.0008258	5.097E-5	0.003293	-0.01027
994.000	10060.36	-0.0002085	-0.003411	0.004111	-0.01262
994.500	10055.30	-0.002833	-0.004185	0.003802	-0.01222
995.000	10050.25	-0.006339	-0.001997	0.001422	-0.01035
995.500	10045.20	-0.006253	-0.003182	-0.002602	-0.01161
996.000	10040.16	-0.003881	-0.004259	2.376E-5	-0.01062
996.500	10035.12	-0.002328	-0.002623	0.006873	-0.007509
997.000	10030.09	-0.003465	3.164E-5	0.004795	-0.009371
997.500	10025.06	-0.001995	0.0003851	0.0006475	-0.01168
998.000	10020.04	0.002135	-0.001226	0.001566	-0.01048
998.500	10015.02	-2.597E-5	0.0003314	0.005191	-0.0083
999.000	10010.01	-0.003966	0.00211	0.006136	-0.008502
999.500	10005.00	-0.004197	0.001051	0.002516	-0.01165
1000.000	10000.00	-0.003373	-0.0001834	-0.0001961	-0.01364
1000.500	9995.00	-0.002991	-0.001398	-0.0006693	-0.01406
1001.000	9990.01	-0.003419	-0.002787	8.299E-5	-0.01391
1001.500	9985.02	-0.004672	-0.002272	0.001477	-0.01255
1002.000	9980.04	-0.005067	-0.002114	0.001538	-0.01091
1002.500	9975.06	-0.002391	-0.003942	0.000185	-0.009992
1003.000	9970.09	0.00355	-0.0002442	0.004315	-0.007954
1003.500	9965.12	0.005933	0.003423	0.007974	-0.006473
1004.000	9960.16	-0.001641	-0.003176	0.001158	-0.009
1004.500	9955.20	-0.006362	-0.006488	-0.001784	-0.01405
1005.000	9950.25	-0.002648	-0.00265	0.003047	-0.01623
1005.500	9945.30	0.003281	-0.0005186	0.005878	-0.01076
1006.000	9940.36	0.003745	0.0004794	0.006136	-0.005289
1006.500	9935.42	-0.0008201	0.001787	0.005698	-0.005184
1007.000	9930.49	-0.001803	0.002522	0.005914	-0.008385
1007.500	9925.56	-0.0005474	0.001459	0.006785	-0.01004
1008.000	9920.63	-0.0005486	0.0002295	0.007164	-0.008121
1008.500	9915.72	-0.002504	0.003334	0.005641	-0.005714
1009.000	9910.80	-0.002362	0.005789	0.005906	-0.004821
1009.500	9905.89	0.0004086	0.003135	0.008034	-0.00658
1010.000	9900.99	-0.001707	-0.0007351	0.0037	-0.01112
1010.500	9896.09	-0.002412	-0.001207	0.001072	-0.01217
1011.000	9891.20	0.003703	0.002318	0.007591	-0.007383
1011.500	9886.31	0.004087	0.002524	0.01003	-0.008982
1012.000	9881.42	-0.0009695	0.0009022	0.005963	-0.01402
1012.500	9876.54	-0.003257	0.002143	0.001872	-0.0132
1013.000	9871.67	0.0001831	0.002868	0.004238	-0.009199
1013.500	9866.80	0.004165	0.003512	0.009694	-0.006507
1014.000	9861.93	0.002339	0.006638	0.01045	-0.007232
1014.500	9857.07	0.001551	0.008317	0.00805	-0.007874
1015.000	9852.22	0.0004923	0.004738	0.004033	-0.01007
1015.500	9847.37	-0.00734	-0.003311	-0.0001693	-0.01717
1016.000	9842.52	-0.007714	-0.003294	0.00456	-0.01539
1016.500	9837.68	-0.0001857	0.003644	0.01408	-0.006213
1017.000	9832.84	-0.0007519	0.002413	0.01245	-0.007717
1017.500	9828.01	-0.001345	0.0005689	0.008632	-0.01119
1018.000	9823.18	0.00256	0.003421	0.0103	-0.009647
1018.500	9818.36	0.001804	0.004499	0.01265	-0.008967
1019.000	9813.54	-0.001407	0.00548	0.01281	-0.006743
1019.500	9808.73	-0.001454	0.007827	0.01115	-0.002012
